Description: ASTM G197-08 (Table 3), Direct Irradiance on 90 degree Tilt at Air Mass 1.5 - Standard Curve in Wm-2nm-1. Direct spectral irradiance at lam, centered on lam. Converted to W m-2 um-1. Total irradiance is 669.75 W/m2.
Type: Source
Wavelength Units: micron

0.28 1.8626E-23
0.2805 8.0182E-22
0.281 4.4996E-21
0.2815 2.0188E-19
0.282 2.0828E-18
0.2825 9.7521E-18
0.283 4.9716E-17
0.2835 1.0742E-16
0.284 3.6637E-15
0.2845 1.5898E-14
0.285 6.6174E-14
0.2855 4.7375E-13
0.286 1.7285E-12
0.2865 1.3576E-11
0.287 5.3365E-11
0.2875 2.6939E-10
0.288 2.0646E-09
0.2885 6.6703E-09
0.289 2.574E-08
0.2895 1.1311E-07
0.29 3.7872E-07
0.2905 9.7925E-07
0.291 2.8685E-06
0.2915 0.000010621
0.292 0.000030034
0.2925 0.000051851
0.293 0.00011606
0.2935 0.00034686
0.294 0.00069649
0.2945 0.001176
0.295 0.0023756
0.2955 0.0059092
0.296 0.010859
0.2965 0.017178
0.297 0.024457
0.2975 0.05005
0.298 0.082013
0.2985 0.10519
0.299 0.14981
0.2995 0.27562
0.3 0.33642
0.3005 0.4218
0.301 0.67783
0.3015 0.97347
0.302 1.0745
0.3025 1.6159
0.303 2.7535
0.3035 3.5439
0.304 3.7601
0.3045 4.7712
0.305 6.591
0.3055 7.5152
0.306 7.4897
0.3065 8.5362
0.307 11.251
0.3075 14.367
0.308 15.317
0.3085 16.792
0.309 16.459
0.3095 17.475
0.31 20.542
0.3105 26.488
0.311 33.514
0.3115 34.08
0.312 37.583
0.3125 39.703
0.313 43.07
0.3135 43.572
0.314 48.203
0.3145 52.054
0.315 54.427
0.3155 47.891
0.316 49.559
0.3165 59.926
0.317 68.721
0.3175 73.669
0.318 70.793
0.3185 73.925
0.319 81.071
0.3195 79.016
0.32 83.337
0.3205 98.324
0.321 99.137
0.3215 94.728
0.322 90.176
0.3225 88.477
0.323 85.916
0.3235 99.005
0.324 109.79
0.3245 114.34
0.325 114.62
0.3255 132.6
0.326 154.29
0.3265 163.86
0.327 161.45
0.3275 157.39
0.328 146.22
0.3285 152.89
0.329 172.29
0.3295 191.28
0.33 193.71
0.3305 178.27
0.331 168.9
0.3315 174.82
0.332 181.28
0.3325 182.38
0.333 179.48
0.3335 172.11
0.334 176.24
0.3345 188.16
0.335 195.89
0.3355 191.58
0.336 176.19
0.3365 163.51
0.337 161.06
0.3375 173.4
0.338 187.37
0.3385 196.47
0.339 200.52
0.3395 206.09
0.34 219.5
0.3405 219.62
0.341 206.73
0.3415 206.15
0.342 215.55
0.3425 224.25
0.343 228.41
0.3435 216.49
0.344 187.67
0.3445 180.92
0.345 206.21
0.3455 220.33
0.346 215.68
0.3465 220.24
0.347 224.47
0.3475 217.32
0.348 216.99
0.3485 221.28
0.349 213.73
0.3495 220.08
0.35 243.73
0.3505 262.68
0.351 256.25
0.3515 247.26
0.352 241.98
0.3525 229.24
0.353 244.22
0.3535 269.23
0.354 285.32
0.3545 289.18
0.355 289.91
0.3555 280.57
0.356 263.9
0.3565 248.11
0.357 218.73
0.3575 221.86
0.358 206.95
0.3585 192.59
0.359 227.06
0.3595 274.21
0.36 290.72
0.3605 275.36
0.361 253.97
0.3615 249.29
0.362 261.92
0.3625 287.51
0.363 296.42
0.3635 288.94
0.364 299.89
0.3645 297.73
0.365 309.82
0.3655 341.69
0.366 366.88
0.3665 368.27
0.367 362.16
0.3675 356.03
0.368 335.86
0.3685 334.29
0.369 350.14
0.3695 376.92
0.37 382.93
0.3705 346.86
0.371 353.01
0.3715 367.54
0.372 344.71
0.3725 329.02
0.373 317.5
0.3735 286.74
0.374 286.51
0.3745 284.91
0.375 304.57
0.3755 337.4
0.376 350.04
0.3765 345
0.377 370.78
0.3775 414.34
0.378 447.15
0.3785 436.62
0.379 390.1
0.3795 350.36
0.38 368.87
0.3805 395.9
0.381 403.53
0.3815 364.31
0.382 311.1
0.3825 269.61
0.383 242.08
0.3835 234.74
0.384 272.06
0.3845 328.04
0.385 360.67
0.3855 345.19
0.386 333.59
0.3865 347.41
0.387 351.08
0.3875 346.55
0.388 343.73
0.3885 341.86
0.389 371.71
0.3895 412.62
0.39 433.54
0.3905 437.86
0.391 464.53
0.3915 471.83
0.392 435.04
0.3925 363.14
0.393 263.32
0.3935 209.69
0.394 272.8
0.3945 376.88
0.395 445.76
0.3955 475.47
0.396 418.67
0.3965 304.88
0.397 236.5
0.3975 349.77
0.398 474.34
0.3985 560.98
0.399 596.48
0.3995 615.57
0.4 623.06
0.401 650.54
0.402 677.98
0.403 654.43
0.404 666.6
0.405 651.77
0.406 637.17
0.407 627.29
0.408 656.56
0.409 702.79
0.41 600.36
0.411 673.54
0.412 717.46
0.413 689.75
0.414 683.71
0.415 709.21
0.416 731.93
0.417 715.35
0.418 685.67
0.419 715.09
0.42 656.57
0.421 747.19
0.422 738.47
0.423 716.46
0.424 713.88
0.425 737.13
0.426 717.51
0.427 694.39
0.428 702.38
0.429 651.48
0.43 520.61
0.431 473.44
0.432 788.92
0.433 735.29
0.434 680.39
0.435 747.53
0.436 821.14
0.437 839.32
0.438 737.71
0.439 710.89
0.44 816.14
0.441 806.18
0.442 864.24
0.443 877.81
0.444 856.56
0.445 890.36
0.446 799.38
0.447 910.13
0.448 922.36
0.449 921.42
0.45 956.45
0.451 993.27
0.452 952.11
0.453 880.27
0.454 945.29
0.455 939.72
0.456 971.89
0.457 981.19
0.458 961.4
0.459 954.95
0.46 949.89
0.461 984.37
0.462 994.6
0.463 999.03
0.464 969.57
0.465 958.45
0.466 979.64
0.467 937.04
0.468 978.73
0.469 983.9
0.47 946.91
0.471 963.72
0.472 1014.7
0.473 976.28
0.474 988.16
0.475 1021.7
0.476 987.83
0.477 994.78
0.478 1028
0.479 1009.2
0.48 1026.9
0.481 1027.8
0.482 1032.5
0.483 1020.8
0.484 1002.3
0.485 999.68
0.486 811.05
0.487 908.93
0.488 984.47
0.489 928.06
0.49 1037.7
0.491 998.11
0.492 952.29
0.493 1019.3
0.494 995.68
0.495 1057.8
0.496 1006.6
0.497 1024.4
0.498 997.12
0.499 997.75
0.5 994.93
0.501 965.18
0.502 965.23
0.503 1010.3
0.504 942.32
0.505 1010.4
0.506 1051.6
0.507 1006.7
0.508 981.58
0.509 1029.1
0.51 1002.9
0.511 1022
0.512 1049.6
0.513 986.61
0.514 966.24
0.515 994.6
0.516 1004.2
0.517 818.7
0.518 936.72
0.519 908.21
0.52 991.99
0.521 999.68
0.522 1022.6
0.523 964.29
0.524 1037.6
0.525 1030
0.526 1001.7
0.527 876.57
0.528 1003.9
0.529 1051
0.53 1010.6
0.531 1066.3
0.532 1047.5
0.533 935.72
0.534 1002.6
0.535 1018.3
0.536 1062.2
0.537 983.2
0.538 1032.8
0.539 1007.7
0.54 973.37
0.541 936.13
0.542 1019.3
0.543 1002.9
0.544 1038.4
0.545 1015.1
0.546 1006.1
0.547 1019.5
0.548 990.86
0.549 1022.2
0.55 1014.5
0.551 1013.8
0.552 1034.9
0.553 1005.9
0.554 1026
0.555 1032
0.556 1014.7
0.557 990.21
0.558 1012
0.559 957.8
0.56 975.19
0.561 1032.2
0.562 983.15
0.563 1020.7
0.564 1001.1
0.565 1007.7
0.566 953.28
0.567 1016.5
0.568 1007.6
0.569 983.38
0.57 984.29
0.571 952.34
0.572 1006.2
0.573 1010.7
0.574 1005.7
0.575 983.23
0.576 975.29
0.577 1000.1
0.578 969.5
0.579 983.63
0.58 1000.3
0.581 1005.1
0.582 1020.7
0.583 1031.4
0.584 1029.4
0.585 1021.4
0.586 996.98
0.587 1019.3
0.588 996.61
0.589 861.19
0.59 915.8
0.591 979.32
0.592 959.19
0.593 973.07
0.594 968.81
0.595 956.98
0.596 985.99
0.597 989.23
0.598 977.25
0.599 977.45
0.6 987.36
0.601 975.88
0.602 961.38
0.603 981.95
0.604 999.39
0.605 997.79
0.606 993.01
0.607 999.04
0.608 995.89
0.609 988.52
0.61 984.41
0.611 979.46
0.612 994.29
0.613 980.37
0.614 950.66
0.615 985.71
0.616 959.82
0.617 947.76
0.618 983.83
0.619 988.57
0.62 989.06
0.621 993.52
0.622 958.09
0.623 951.45
0.624 948.36
0.625 942.1
0.626 941.2
0.627 968.56
0.628 916.95
0.629 948.88
0.63 936.31
0.631 951.98
0.632 916.84
0.633 975.12
0.634 960
0.635 971.82
0.636 949.69
0.637 982.14
0.638 988.69
0.639 984.64
0.64 964.16
0.641 964.75
0.642 966.65
0.643 976.7
0.644 972.48
0.645 979.67
0.646 951.89
0.647 947.95
0.648 939.11
0.649 910.05
0.65 914.86
0.651 972.32
0.652 934.15
0.653 963.33
0.654 952.69
0.655 909.06
0.656 798
0.657 834.5
0.658 932.86
0.659 936.3
0.66 942.36
0.661 938.68
0.662 931.22
0.663 932.79
0.664 940.88
0.665 957.49
0.666 956.7
0.667 949.81
0.668 953.03
0.669 969.55
0.67 956.25
0.671 954.46
0.672 941.16
0.673 949.3
0.674 948
0.675 940.29
0.676 951.25
0.677 942.57
0.678 947.59
0.679 939.61
0.68 941.13
0.681 937.55
0.682 942.07
0.683 931.96
0.684 925.94
0.685 926.62
0.686 9.06E+02
0.687 6.57E+02
0.688 7.59E+02
0.689 7.63E+02
0.69 8.00E+02
0.691 8.33E+02
0.692 8.57E+02
0.693 8.52E+02
0.694 8.42E+02
0.695 8.59E+02
0.696 8.57E+02
0.697 9.04E+02
0.698 8.90E+02
0.699 8.72E+02
0.7 8.66E+02
0.701 8.55E+02
0.702 8.56E+02
0.703 8.61E+02
0.704 8.83E+02
0.705 8.92E+02
0.706 8.87E+02
0.707 8.84E+02
0.708 8.81E+02
0.709 8.84E+02
0.71 8.90E+02
0.711 8.88E+02
0.712 882.23
0.713 872.04
0.714 879.8
0.715 850.42
0.716 859.32
0.717 750.2
0.718 698.56
0.719 627.14
0.72 669.3
0.721 736.49
0.722 839.51
0.723 775.66
0.724 716.68
0.725 705.05
0.726 734.05
0.727 736.66
0.728 706.75
0.729 710.74
0.73 766.1
0.731 727.11
0.732 782.9
0.733 811.3
0.734 838.08
0.735 826.18
0.736 818.18
0.737 817.04
0.738 832.35
0.739 807.84
0.74 827.55
0.741 824.44
0.742 824.89
0.743 842.21
0.744 849.03
0.745 848.75
0.746 847.07
0.747 847.67
0.748 842.73
0.749 839.98
0.75 839.03
0.751 835.37
0.752 838.47
0.753 834.33
0.754 845.01
0.755 842.63
0.756 832.47
0.757 831.84
0.758 837.05
0.759 813.66
0.76 183.96
0.761 106.64
0.762 472.58
0.763 262.13
0.764 371.31
0.765 471.74
0.766 558.85
0.767 666.74
0.768 760.85
0.769 770.16
0.77 792.42
0.771 797.62
0.772 804.02
0.773 803.69
0.774 803.91
0.775 803.96
0.776 805.91
0.777 801.24
0.778 800.47
0.779 804.18
0.78 795.5
0.781 793.69
0.782 797.54
0.783 794.4
0.784 789.18
0.785 792.72
0.786 793.26
0.787 783.89
0.788 774.14
0.789 771.1
0.79 747.76
0.791 757.71
0.792 750.64
0.793 745.5
0.794 751.92
0.795 749.36
0.796 736.88
0.797 748.64
0.798 762.65
0.799 748.04
0.8 735.95
0.801 744.28
0.802 745.26
0.803 731.71
0.804 740.38
0.805 724.14
0.806 753.58
0.807 745.84
0.808 743.31
0.809 724.77
0.81 725.78
0.811 724.18
0.812 706.38
0.813 694.12
0.814 622.99
0.815 617.38
0.816 574.53
0.817 588.03
0.818 568.05
0.819 624.22
0.82 594.85
0.821 687.12
0.822 655.77
0.823 465.89
0.824 644.89
0.825 668.22
0.826 644.24
0.827 678.84
0.828 587.21
0.829 641.3
0.83 632.33
0.831 637.81
0.832 617.67
0.833 659.83
0.834 644.83
0.835 691.81
0.836 671.1
0.837 696.1
0.838 689.34
0.839 690.82
0.84 700.81
0.841 697.1
0.842 688.06
0.843 693.72
0.844 680.79
0.845 701.58
0.846 703.23
0.847 684.62
0.848 685.09
0.849 680.9
0.85 617.26
0.851 673.51
0.852 669.7
0.853 666.71
0.854 588.23
0.855 631.02
0.856 672.69
0.857 685.47
0.858 685.74
0.859 685.64
0.86 683.28
0.861 682.42
0.862 687.78
0.863 692.01
0.864 677.28
0.865 666.34
0.866 587.38
0.867 633.42
0.868 663.76
0.869 657.15
0.87 669.68
0.871 660.28
0.872 669.34
0.873 662.72
0.874 651.2
0.875 641.92
0.876 659.94
0.877 662.35
0.878 659.82
0.879 648.93
0.88 651.08
0.881 629.71
0.882 646.27
0.883 644.09
0.884 646.81
0.885 654.67
0.886 629.36
0.887 631.48
0.888 639.67
0.889 648.18
0.89 641.01
0.891 642.33
0.892 630.66
0.893 606.27
0.894 591.38
0.895 565.64
0.896 530.71
0.897 464.03
0.898 499.97
0.899 383.23
0.9 517.04
0.901 418.25
0.902 465.45
0.903 480.22
0.904 587.3
0.905 568.5
0.906 539.93
0.907 445.59
0.908 454.96
0.909 490.87
0.91 436.06
0.911 466.06
0.912 480.41
0.913 438.69
0.914 437.46
0.915 473.28
0.916 402.9
0.917 509.03
0.918 414.17
0.919 515.08
0.92 518.77
0.921 543.7
0.922 488.44
0.923 519.08
0.924 503.24
0.925 496.17
0.926 490.61
0.927 548.77
0.928 412.32
0.929 385.73
0.93 302.96
0.931 287.03
0.932 211.41
0.933 174.71
0.934 101.32
0.935 176.44
0.936 113.7
0.937 115.09
0.938 141.22
0.939 279.97
0.94 330.77
0.941 261.21
0.942 284.45
0.943 195.8
0.944 201
0.945 258.66
0.946 137.11
0.947 260.76
0.948 192.99
0.949 346.44
0.95 103.86
0.951 339.36
0.952 189.32
0.953 241.64
0.954 297.84
0.955 239.86
0.956 230.86
0.957 190.61
0.958 323.65
0.959 262.88
0.96 295.59
0.961 323.86
0.962 310.33
0.963 354.43
0.964 322.08
0.965 353.57
0.966 352.88
0.967 352.71
0.968 456.59
0.969 480.27
0.97 444.59
0.971 499.49
0.972 481.39
0.973 425.17
0.974 403.49
0.975 413.67
0.976 401.27
0.977 447.54
0.978 431.3
0.979 447.26
0.98 424.14
0.981 499.5
0.982 484.93
0.983 468.63
0.984 516.12
0.985 482.19
0.986 525.53
0.987 517.61
0.988 514.41
0.989 524.33
0.99 512.8
0.991 527.63
0.992 525.86
0.993 516.4
0.994 528.06
0.995 526.44
0.996 524.47
0.997 518.12
0.998 517.56
0.999 517.37
1 515.17
1.001 521.53
1.002 510.24
1.003 514.62
1.004 506.96
1.005 477.79
1.006 499.44
1.007 509.99
1.008 509.57
1.009 504.62
1.01 504.27
1.011 506.8
1.012 504.06
1.013 503.24
1.014 505.42
1.015 496.69
1.016 498.93
1.017 493.42
1.018 501.06
1.019 483.31
1.02 490.46
1.021 492.45
1.022 484.06
1.023 487.86
1.024 484.79
1.025 489.63
1.026 488.87
1.027 486.59
1.028 487.18
1.029 481.89
1.03 484.91
1.031 482.72
1.032 483.12
1.033 474.92
1.034 477.78
1.035 479.37
1.036 479.18
1.037 474.28
1.038 472.01
1.039 475.3
1.04 472.06
1.041 472.15
1.042 472.36
1.043 467.64
1.044 469.83
1.045 467.19
1.046 455.02
1.047 461.94
1.048 466.05
1.049 463.42
1.05 460.42
1.051 460.86
1.052 458.07
1.053 456.69
1.054 454.8
1.055 456.25
1.056 454.85
1.057 453.77
1.058 449.13
1.059 435.47
1.06 447.54
1.061 437.27
1.062 445.37
1.063 438.17
1.064 444.93
1.065 442.99
1.066 434.56
1.067 436.85
1.068 436.28
1.069 412.94
1.07 425.98
1.071 434.37
1.072 433.55
1.073 425.29
1.074 437.91
1.075 417.61
1.076 433.16
1.077 425.96
1.078 425.22
1.079 426.22
1.08 421.08
1.081 409.56
1.082 415.52
1.083 421.7
1.084 408.08
1.085 418.42
1.086 391.1
1.087 399.96
1.088 418.4
1.089 408.69
1.09 392.3
1.091 415.14
1.092 410.12
1.093 360.72
1.094 380.86
1.095 367.77
1.096 355.61
1.097 408.31
1.098 355.45
1.099 358.81
1.1 343.55
1.101 351.42
1.102 331.63
1.103 329.98
1.104 330.88
1.105 358.1
1.106 281.92
1.107 341.71
1.108 294.41
1.109 292.42
1.11 338.96
1.111 235.22
1.112 293.02
1.113 190.72
1.114 212.9
1.115 177.56
1.116 143.22
1.117 56.745
1.118 154.69
1.119 80.622
1.12 101.04
1.121 132.27
1.122 58.232
1.123 91.306
1.124 77.461
1.125 102.77
1.126 36.8
1.127 111.99
1.128 70.739
1.129 75.499
1.13 50.341
1.131 210.11
1.132 166.58
1.133 109.23
1.134 29.793
1.135 11.041
1.136 91.791
1.137 204.68
1.138 144.75
1.139 212.22
1.14 182.15
1.141 137.73
1.142 160.05
1.143 221.71
1.144 80.788
1.145 104.13
1.146 112.39
1.147 42.256
1.148 192.95
1.149 155.67
1.15 86.788
1.151 144.94
1.152 176.33
1.153 169.59
1.154 101.65
1.155 222.8
1.156 199.95
1.157 223.82
1.158 221.8
1.159 239.64
1.16 203.93
1.161 247.12
1.162 248.94
1.163 332.63
1.164 285.6
1.165 276.27
1.166 266.59
1.167 291.36
1.168 298.16
1.169 300.62
1.17 325.82
1.171 318.52
1.172 323.13
1.173 324.27
1.174 239.86
1.175 321.44
1.176 338.61
1.177 335.58
1.178 256.24
1.179 343.58
1.18 313.32
1.181 323.53
1.182 230.25
1.183 311.84
1.184 298.65
1.185 289.9
1.186 339.14
1.187 324.07
1.188 238.72
1.189 295.68
1.19 328.76
1.191 317.68
1.192 336.56
1.193 323.15
1.194 333.43
1.195 317.94
1.196 306.88
1.197 339.22
1.198 308.66
1.199 259.81
1.2 318.81
1.201 310.96
1.202 311.02
1.203 308.77
1.204 258.13
1.205 310.81
1.206 341.78
1.207 305.82
1.208 308.31
1.209 294.67
1.21 322.38
1.211 300.41
1.212 302.3
1.213 333.83
1.214 308.79
1.215 304.38
1.216 331.63
1.217 323.8
1.218 326.67
1.219 317.7
1.22 325.79
1.221 330.92
1.222 321.11
1.223 315.92
1.224 318.81
1.225 328.89
1.226 333.03
1.227 308.17
1.228 331.9
1.229 332.37
1.23 327.31
1.231 335.79
1.232 331.76
1.233 323.07
1.234 334.5
1.235 330.89
1.236 333.77
1.237 329.77
1.238 333.02
1.239 329.29
1.24 327.93
1.241 328.81
1.242 329.18
1.243 325.7
1.244 324.12
1.245 325.03
1.246 327.12
1.247 325.72
1.248 326.56
1.249 327.33
1.25 325.49
1.251 322.34
1.252 321.19
1.253 318.93
1.254 316.05
1.255 321.05
1.256 313.66
1.257 310.19
1.258 317.03
1.259 304.51
1.26 307.25
1.261 293.36
1.262 282.15
1.263 285.38
1.264 265.02
1.265 282.18
1.266 274.81
1.267 276.88
1.268 264.33
1.269 176.27
1.27 276.34
1.271 291.06
1.272 291.44
1.273 289.66
1.274 289.58
1.275 293.99
1.276 297.27
1.277 299.47
1.278 304.88
1.279 302.71
1.28 300.93
1.281 294.73
1.282 265.97
1.283 290.44
1.284 300.05
1.285 302.35
1.286 304.59
1.287 301.07
1.288 299.48
1.289 292.04
1.29 294.49
1.291 298.08
1.292 282.75
1.293 294.37
1.294 288.43
1.295 289.11
1.296 278.1
1.297 265.14
1.298 279.69
1.299 291.55
1.3 252.26
1.301 258.77
1.302 279.71
1.303 247.36
1.304 214.96
1.305 274.08
1.306 274.6
1.307 218.79
1.308 247.96
1.309 274.37
1.31 215.41
1.311 238.53
1.312 238.34
1.313 224.2
1.314 206.32
1.315 204.52
1.316 231.83
1.317 223.31
1.318 238.32
1.319 192.27
1.32 185.27
1.321 213.74
1.322 216.26
1.323 166.81
1.324 188
1.325 230.57
1.326 200.86
1.327 190.7
1.328 168.06
1.329 127.4
1.33 164.32
1.331 103.96
1.332 104.66
1.333 145.64
1.334 121.47
1.335 165.75
1.336 131.67
1.337 118.12
1.338 127.8
1.339 126.92
1.34 120.83
1.341 122.34
1.342 127.79
1.343 91.348
1.344 54.409
1.345 78.395
1.346 41.869
1.347 43.262
1.348 3.4174
1.349 11.637
1.35 11.541
1.351 3.3352
1.352 1.0925
1.353 0.069237
1.354 0.20902
1.355 0.0025966
1.356 0.034641
1.357 0.051735
1.358 0.0030234
1.359 0.00052936
1.36 0.0015429
1.361 3.4698E-06
1.362 1.3032E-08
1.363 0.0022757
1.364 0.0009799
1.365 6.5449E-09
1.366 0.009224
1.367 0.0035887
1.368 1.0664E-10
1.369 0.00037264
1.37 0.00021062
1.371 0.000014233
1.372 0.0019838
1.373 0.032035
1.374 0.12928
1.375 0.2333
1.376 0.1858
1.377 0.08855
1.378 0.80033
1.379 0.037655
1.38 0.058898
1.381 0.0017122
1.382 0.0018535
1.383 0.000031783
1.384 0.00044547
1.385 0.0015093
1.386 0.0018212
1.387 0.14372
1.388 0.0029089
1.389 0.4198
1.39 0.35645
1.391 0.24847
1.392 0.017187
1.393 0.08374
1.394 0.054596
1.395 0.00048537
1.396 4.5706E-06
1.397 0.035473
1.398 0.91868
1.399 0.58744
1.4 2.3482E-06
1.401 0.000007615
1.402 1.3277
1.403 1.7219
1.404 0.53469
1.405 0.00026375
1.406 1.4799
1.407 0.12636
1.408 1.1939
1.409 0.44828
1.41 0.33779
1.411 1.5309
1.412 1.9114
1.413 16.908
1.414 0.26348
1.415 0.13304
1.416 25.754
1.417 8.5181
1.418 9.8225
1.419 1.5537
1.42 5.9938
1.421 6.6406
1.422 33.55
1.423 6.6824
1.424 12.303
1.425 18.735
1.426 20.143
1.427 35.902
1.428 3.3056
1.429 27.56
1.43 44.644
1.431 36.358
1.432 1.8275
1.433 25.984
1.434 15.204
1.435 15.535
1.436 27.814
1.437 21.673
1.438 9.622
1.439 37.014
1.44 28.724
1.441 23.07
1.442 26.346
1.443 32.689
1.444 44.817
1.445 36.092
1.446 16.76
1.447 26.278
1.448 83.86
1.449 74.051
1.45 19.895
1.451 8.1821
1.452 45.245
1.453 59.467
1.454 99.73
1.455 47.996
1.456 64.202
1.457 84.842
1.458 98.904
1.459 118.18
1.46 61.969
1.461 65.49
1.462 94.695
1.463 31.376
1.464 110.06
1.465 67.744
1.466 47.317
1.467 26.177
1.468 55.834
1.469 68.812
1.47 36.064
1.471 12.962
1.472 33.954
1.473 50.946
1.474 70.616
1.475 133.79
1.476 49.916
1.477 50.609
1.478 46.07
1.479 87.037
1.48 44.012
1.481 83.619
1.482 42.451
1.483 107.71
1.484 99.666
1.485 90.671
1.486 89.478
1.487 43.997
1.488 68.298
1.489 137.43
1.49 126.63
1.491 143.24
1.492 119.13
1.493 131.53
1.494 147.5
1.495 132.23
1.496 122.09
1.497 165.41
1.498 137.39
1.499 157.54
1.5 181.37
1.501 192.12
1.502 169.07
1.503 133.93
1.504 116.14
1.505 133.27
1.506 186.49
1.507 184.65
1.508 175.9
1.509 135.39
1.51 195.75
1.511 191.58
1.512 188.64
1.513 175.45
1.514 163.42
1.515 192.29
1.516 185.87
1.517 180.44
1.518 182.49
1.519 176.9
1.52 191.42
1.521 199.01
1.522 190.89
1.523 202.63
1.524 199.28
1.525 187.34
1.526 193.58
1.527 189.78
1.528 202.11
1.529 197.18
1.53 184.72
1.531 195.24
1.532 201.49
1.533 200.59
1.534 194.66
1.535 193.18
1.536 198.81
1.537 197.91
1.538 196.93
1.539 197.61
1.54 191.79
1.541 194.8
1.542 194.98
1.543 197.02
1.544 197.05
1.545 200.62
1.546 199
1.547 197.75
1.548 193.16
1.549 197.98
1.55 195.43
1.551 195.93
1.552 196.84
1.553 196.48
1.554 191.72
1.555 193.79
1.556 190.54
1.557 195.99
1.558 194.44
1.559 194.15
1.56 192.42
1.561 195.55
1.562 193.78
1.563 193.13
1.564 190.21
1.565 193.57
1.566 190.07
1.567 190.52
1.568 186.28
1.569 184.33
1.57 175.1
1.571 170.28
1.572 172.2
1.573 169.54
1.574 174.86
1.575 173.59
1.576 178.71
1.577 156.45
1.578 170.31
1.579 171.44
1.58 177.15
1.581 180.08
1.582 175.19
1.583 179.24
1.584 180.3
1.585 187.31
1.586 185.1
1.587 183.17
1.588 181.74
1.589 168.18
1.59 175.02
1.591 175.15
1.592 182.6
1.593 187
1.594 185.49
1.595 186.93
1.596 177
1.597 178.75
1.598 184.02
1.599 175.21
1.6 172.39
1.601 161.65
1.602 162.31
1.603 162.2
1.604 165.42
1.605 171.48
1.606 174.79
1.607 168.7
1.608 166.51
1.609 164.61
1.61 157.59
1.611 164.25
1.612 167.1
1.613 171.76
1.614 172.62
1.615 174.54
1.616 166.9
1.617 169.9
1.618 176.33
1.619 174.51
1.62 169.79
1.621 169.66
1.622 172.01
1.623 175.58
1.624 175.75
1.625 172.23
1.626 173.6
1.627 174.38
1.628 174.73
1.629 174.81
1.63 171.3
1.631 172.43
1.632 172.54
1.633 168.53
1.634 168.64
1.635 169.27
1.636 170.51
1.637 164.44
1.638 159.44
1.639 159.56
1.64 155.86
1.641 159.1
1.642 159.99
1.643 156.05
1.644 161.97
1.645 158.12
1.646 157.61
1.647 164.97
1.648 156.94
1.649 158.45
1.65 163.23
1.651 151.15
1.652 162.13
1.653 161.44
1.654 156.44
1.655 161.12
1.656 160.19
1.657 161.08
1.658 162.99
1.659 160.34
1.66 161.89
1.661 162.28
1.662 158.84
1.663 161.21
1.664 160.22
1.665 153.58
1.666 129.76
1.667 152.8
1.668 155.63
1.669 156.05
1.67 160.78
1.671 158.7
1.672 153.4
1.673 156.9
1.674 156.52
1.675 154.97
1.676 153.41
1.677 154.04
1.678 151.78
1.679 154.58
1.68 149.19
1.681 141.13
1.682 147.8
1.683 151.72
1.684 143.72
1.685 154.75
1.686 152.61
1.687 148.7
1.688 152.53
1.689 150.39
1.69 149
1.691 140.18
1.692 150.36
1.693 153.44
1.694 148.69
1.695 152.25
1.696 151.92
1.697 131.54
1.698 150.6
1.699 149.24
1.7 145.07
1.702 148.13
1.705 143.66
1.71 136.51
1.715 137.81
1.72 135.88
1.725 129.44
1.73 126.55
1.735 117.45
1.74 122.28
1.745 112.58
1.75 120.47
1.755 111.29
1.76 116.34
1.765 96.649
1.77 103.09
1.775 83.575
1.78 73.152
1.785 56.053
1.79 64.722
1.795 34.186
1.8 23.19
1.805 10.797
1.81 7.0634
1.815 2.3922
1.82 0.71988
1.825 0.92896
1.83 0.0037937
1.835 0.0046799
1.84 0.00004572
1.845 0.0045691
1.85 0.0021876
1.855 0.00020719
1.86 0.0081396
1.865 0.012407
1.87 1.9491E-07
1.875 3.3019E-07
1.88 0.056743
1.885 0.032149
1.89 0.16367
1.895 0.094987
1.9 0.00063299
1.905 0.00041593
1.91 0.01694
1.915 0.014665
1.92 0.33135
1.925 0.68823
1.93 0.40607
1.935 2.641
1.94 2.412
1.945 7.9813
1.95 12.287
1.955 7.3695
1.96 16.078
1.965 20.957
1.97 35.823
1.975 49.743
1.98 55.338
1.985 60.848
1.99 62.71
1.995 59.477
2 27.947
2.005 10.993
2.01 29.124
2.015 19.536
2.02 32.977
2.025 54.251
2.03 62.213
2.035 70.672
2.04 65.854
2.045 66.817
2.05 49.863
2.055 40.321
2.06 50.806
2.065 45.443
2.07 48.241
2.075 56.88
2.08 63.756
2.085 62.503
2.09 65.434
2.095 65.913
2.1 63.265
2.105 68.411
2.11 65.838
2.115 67.32
2.12 64.319
2.125 65.081
2.13 65.915
2.135 66.106
2.14 66.637
2.145 65.699
2.15 62.148
2.155 62.295
2.16 61.808
2.165 56.041
2.17 60.216
2.175 59.084
2.18 60.083
2.185 54.761
2.19 58.077
2.195 58.023
2.2 52.314
2.205 54.381
2.21 58.278
2.215 56.052
2.22 57.127
2.225 55.465
2.23 55.708
2.235 54.637
2.24 53.78
2.245 52.119
2.25 52.956
2.255 49.848
2.26 49.31
2.265 50.214
2.27 47.816
2.275 47.198
2.28 48.869
2.285 46.511
2.29 46.62
2.295 45.18
2.3 43.384
2.305 43.645
2.31 47.109
2.315 42.888
2.32 38.386
2.325 41.471
2.33 41.922
2.335 42.765
2.34 33.821
2.345 37.925
2.35 30.653
2.355 35.031
2.36 37.071
2.365 36.463
2.37 22.75
2.375 32.583
2.38 31.408
2.385 22.758
2.39 27.397
2.395 29.97
2.4 32.6
2.405 24.817
2.41 24.979
2.415 20.173
2.42 19.652
2.425 24.456
2.43 33.345
2.435 11.008
2.44 32.004
2.445 15.401
2.45 10.082
2.455 18.412
2.46 24.721
2.465 17.9
2.47 12.403
2.475 12.204
2.48 5.9643
2.485 4.1634
2.49 2.6063
2.495 2.1359
2.5 5.2436
2.505 1.1276
2.51 1.645
2.515 0.38505
2.52 0.27496
2.525 0.030714
2.53 0.0004718
2.535 0.00012984
2.54 0.00027975
2.545 3.9866E-08
2.55 2.0926E-10
2.555 7.7367E-07
2.56 2.2996E-08
2.565 1.1814E-11
2.57 1.1297E-15
2.575 7.9838E-25
2.58 2.8283E-19
2.585 1.2723E-31
2.59 4.0537E-28
2.595 1.69E-30
2.6 3.3221E-25
2.605 4.294E-32
2.61 4.3968E-31
2.615 8.2807E-35
2.62 4.1796E-26
2.625 2.8615E-25
2.63 1.4013E-42
2.635 2.8869E-13
2.64 8.6917E-14
2.645 6.6577E-16
2.65 1.0577E-16
2.655 9.72E-25
2.66 1.9296E-22
2.665 8.2355E-35
2.67 0
2.675 0
2.68 0
2.685 0
2.69 7.5885E-27
2.695 5.2949E-30
2.7 0
2.705 2.1818E-39
2.71 8.3799E-33
2.715 2.8742E-23
2.72 4.2039E-42
2.725 5.45E-19
2.73 4.543E-16
2.735 4.1099E-18
2.74 1.7474E-24
2.745 9.8601E-21
2.75 1.2495E-25
2.755 5.0447E-41
2.76 0
2.765 2.0133E-24
2.77 6.3025E-21
2.775 3.0093E-35
2.78 3.6186E-31
2.785 2.9269E-24
2.79 9.1675E-14
2.795 2.7283E-13
2.8 1.2426E-09
2.805 5.0872E-11
2.81 3.0343E-07
2.815 2.1636E-07
2.82 1.55E-08
2.825 0.00013282
2.83 0.0029433
2.835 1.6056E-07
2.84 0.000148
2.845 0.030625
2.85 0.00087301
2.855 0.0003387
2.86 0.019141
2.865 0.12656
2.87 0.0047662
2.875 0.29574
2.88 0.18668
2.885 0.34229
2.89 0.14062
2.895 2.0118
2.9 0.61277
2.905 0.083784
2.91 2.0554
2.915 0.95004
2.92 2.1859
2.925 0.81816
2.93 4.4444
2.935 4.9006
2.94 1.2287
2.945 1.094
2.95 3.9469
2.955 1.7638
2.96 3.4708
2.965 5.6155
2.97 0.266
2.975 0.64495
2.98 1.0102
2.985 5.2562
2.99 7.7597
2.995 3.2274
3 5.9232
3.005 2.1817
3.01 5.1685
3.015 4.1927
3.02 0.47826
3.025 5.6628
3.03 4.5848
3.035 1.8856
3.04 1.5275
3.045 3.1762
3.05 0.77886
3.055 0.21842
3.06 4.7541
3.065 2.1964
3.07 1.3196
3.075 4.5428
3.08 2.7323
3.085 1.3329
3.09 1.7954
3.095 0.49408
3.1 3.3189
3.105 0.69493
3.11 0.63767
3.115 1.7098
3.12 7.4034
3.125 2.2834
3.13 4.3429
3.135 8.6273
3.14 2.5054
3.145 2.4507
3.15 5.0297
3.155 4.2474
3.16 6.956
3.165 10.56
3.17 9.4282
3.175 6.9529
3.18 8.0002
3.185 6.0874
3.19 3.1925
3.195 2.0278
3.2 0.33015
3.205 0.23322
3.21 0.10265
3.215 0.37457
3.22 1.2112
3.225 0.14961
3.23 0.25652
3.235 5.4895
3.24 2.8195
3.245 0.55246
3.25 1.9616
3.255 7.4773
3.26 0.92157
3.265 1.8406
3.27 0.91647
3.275 4.4556
3.28 2.1541
3.285 8.368
3.29 6.5844
3.295 0.91986
3.3 1.3379
3.305 2.9635
3.31 2.95
3.315 0.01213
3.32 0.045106
3.325 2.6458
3.33 3.5053
3.335 6.82
3.34 2.6023
3.345 2.6634
3.35 6.0391
3.355 2.732
3.36 3.9436
3.365 5.4123
3.37 2.9653
3.375 6.3665
3.38 3.849
3.385 5.6404
3.39 7.4225
3.395 7.191
3.4 9.4231
3.405 3.3597
3.41 5.3344
3.415 5.4833
3.42 9.9201
3.425 7.5394
3.43 6.547
3.435 8.7034
3.44 6.0528
3.445 8.5251
3.45 8.4009
3.455 6.2583
3.46 9.4371
3.465 7.3934
3.47 9.2351
3.475 8.2396
3.48 8.4509
3.485 9.1051
3.49 7.8438
3.495 9.233
3.5 8.9709
3.505 8.8899
3.51 9.0045
3.515 8.6474
3.52 9.1154
3.525 8.5915
3.53 8.3633
3.535 7.1058
3.54 6.7856
3.545 7.1691
3.55 7.9154
3.555 6.8031
3.56 8.1059
3.565 8.1474
3.57 6.2593
3.575 6.4887
3.58 7.6462
3.585 6.8804
3.59 7.0939
3.595 7.2567
3.6 7.7003
3.605 7.7728
3.61 7.1118
3.615 7.1068
3.62 8.7128
3.625 7.6808
3.63 7.4677
3.635 7.7255
3.64 8.6109
3.645 7.9502
3.65 7.5926
3.655 8.2331
3.66 8.1852
3.665 7.689
3.67 5.9247
3.675 3.6212
3.68 6.2471
3.685 7.076
3.69 7.2663
3.695 7.5956
3.7 8.1541
3.705 8.0722
3.71 7.0182
3.715 6.9139
3.72 7.7754
3.725 8.0159
3.73 6.9465
3.735 6.4314
3.74 6.6299
3.745 7.7393
3.75 6.9594
3.755 6.7353
3.76 6.6388
3.765 6.4039
3.77 6.8332
3.775 6.7787
3.78 7.1694
3.785 6.5983
3.79 5.8074
3.795 6.6399
3.8 7.3804
3.805 6.9648
3.81 6.1713
3.815 5.8057
3.82 7.2253
3.825 7.113
3.83 7.1776
3.835 5.7552
3.84 6.7152
3.845 6.5684
3.85 6.6036
3.855 6.3647
3.86 5.9794
3.865 6.0577
3.87 5.5053
3.875 5.0574
3.88 4.8868
3.885 5.0644
3.89 5.1466
3.895 5.5906
3.9 5.9264
3.905 5.9274
3.91 5.3354
3.915 5.2243
3.92 5.1941
3.925 5.1232
3.93 5.2712
3.935 5.4982
3.94 5.5343
3.945 5.6376
3.95 5.7019
3.955 5.7708
3.96 5.7916
3.965 5.8344
3.97 5.7408
3.975 5.6127
3.98 5.521
3.985 5.5548
3.99 5.5094
3.995 5.3878
4 5.3085
