Description: ASTM G197-08 (Table 3), Global Irradiance on 20 degree Tilt at Air Mass 1.5 - Standard Curve in Wm-2nm-1. Global spectral irradiance at lam, centered on lam. Converted to W m-2 um-1. Total irradiance is 889.03 W/m2.
Type: Source
Wavelength Units: micron
     
0.28 5.0988E-20
0.2805 1.3263E-18
0.281 6.1318E-18
0.2815 1.6879E-16
0.282 1.2873E-15
0.2825 4.896E-15
0.283 1.9881E-14
0.2835 3.8098E-14
0.284 7.8264E-13
0.2845 2.6762E-12
0.285 8.6257E-12
0.2855 4.5837E-11
0.286 1.4715E-10
0.2865 9.0069E-10
0.287 2.9386E-09
0.2875 1.1694E-08
0.288 6.674E-08
0.2885 1.8352E-07
0.289 6.0074E-07
0.2895 2.2112E-06
0.29 6.4002E-06
0.2905 0.000014635
0.291 0.000037131
0.2915 0.00011521
0.292 0.00028232
0.2925 0.0004482
0.293 0.00090532
0.2935 0.0023675
0.294 0.0043386
0.2945 0.0068324
0.295 0.012697
0.2955 0.028623
0.296 0.049112
0.2965 0.072908
0.297 0.098649
0.2975 0.18891
0.298 0.29334
0.2985 0.36123
0.299 0.49549
0.2995 0.86337
0.3 1.0214
0.3005 1.2431
0.301 1.9211
0.3015 2.6718
0.302 2.8947
0.3025 4.2361
0.303 6.997
0.3035 8.8421
0.304 9.3198
0.3045 11.757
0.305 16.189
0.3055 18.404
0.306 18.256
0.3065 20.737
0.307 27.363
0.3075 35.02
0.308 37.169
0.3085 40.695
0.309 39.807
0.3095 42.557
0.31 50.061
0.3105 64.397
0.311 81.475
0.3115 82.59
0.312 91.783
0.3125 97.327
0.313 105.53
0.3135 105.66
0.314 117.63
0.3145 128.48
0.315 134.01
0.3155 116.29
0.316 121.4
0.3165 147.89
0.317 168.63
0.3175 179.13
0.318 172.76
0.3185 182.69
0.319 201.18
0.3195 192.13
0.32 201.14
0.3205 240.54
0.321 245.65
0.3215 233.92
0.322 217.32
0.3225 212.35
0.323 207.7
0.3235 243.56
0.324 269.67
0.3245 276.94
0.325 272.22
0.3255 316.63
0.326 372.37
0.3265 397.89
0.327 388.53
0.3275 375.01
0.328 341.67
0.3285 361.92
0.329 411.53
0.3295 456.65
0.33 458.74
0.3305 415.84
0.331 390.8
0.3315 405.81
0.332 423.59
0.3325 426.38
0.333 416.53
0.3335 394.45
0.334 401.63
0.3345 430.87
0.335 448.98
0.3355 438.41
0.336 401.46
0.3365 369.09
0.337 360.7
0.3375 386.19
0.338 418.62
0.3385 438.92
0.339 446.67
0.3395 456.86
0.34 482.7
0.3405 481.4
0.341 453.11
0.3415 450.97
0.342 469.93
0.3425 487.28
0.343 493.86
0.3435 465.93
0.344 400.69
0.3445 385.86
0.345 439.23
0.3455 468.04
0.346 456.78
0.3465 464.94
0.347 471.77
0.3475 454.98
0.348 453.24
0.3485 460.88
0.349 443.75
0.3495 455.33
0.35 502.62
0.3505 539.9
0.351 524.69
0.3515 503.92
0.352 492.03
0.3525 464.95
0.353 493.96
0.3535 542.96
0.354 573.72
0.3545 579.68
0.355 579.26
0.3555 558.98
0.356 524.26
0.3565 491.43
0.357 431.93
0.3575 436.86
0.358 406.34
0.3585 377.08
0.359 443.25
0.3595 533.59
0.36 564.18
0.3605 532.97
0.361 490.28
0.3615 480
0.362 502.99
0.3625 550.69
0.363 566.27
0.3635 550.52
0.364 569.92
0.3645 564.33
0.365 585.72
0.3655 644.35
0.366 690.12
0.3665 691.03
0.367 677.88
0.3675 664.77
0.368 625.57
0.3685 621.13
0.369 649.03
0.3695 697.02
0.37 706.48
0.3705 638.44
0.371 648.27
0.3715 673.4
0.372 630.12
0.3725 600.09
0.373 577.76
0.3735 520.62
0.374 519.06
0.3745 515.04
0.375 549.38
0.3755 607.27
0.376 628.67
0.3765 618.3
0.377 663.1
0.3775 739.47
0.378 796.36
0.3785 775.99
0.379 691.88
0.3795 620.13
0.38 651.58
0.3805 697.92
0.381 709.96
0.3815 639.71
0.382 545.2
0.3825 471.58
0.383 422.61
0.3835 409.02
0.384 473.12
0.3845 569.41
0.385 624.87
0.3855 596.94
0.386 575.82
0.3865 598.58
0.387 603.81
0.3875 594.93
0.388 589.04
0.3885 584.79
0.389 634.73
0.3895 703.36
0.39 737.73
0.3905 743.81
0.391 787.78
0.3915 798.81
0.392 735.29
0.3925 612.75
0.393 443.58
0.3935 352.67
0.394 458.07
0.3945 631.81
0.395 746.07
0.3955 794.53
0.396 698.52
0.3965 507.87
0.397 393.36
0.3975 580.85
0.398 786.52
0.3985 928.75
0.399 986.07
0.3995 1016.1
0.4 1026.9
0.401 1069
0.402 1110.9
0.403 1069.2
0.404 1086
0.405 1058.8
0.406 1032.3
0.407 1013.5
0.408 1057.9
0.409 1129.3
0.41 962.21
0.411 1076.7
0.412 1144.1
0.413 1097.2
0.414 1084.9
0.415 1122.6
0.416 1155.8
0.417 1126.9
0.418 1077.7
0.419 1121.3
0.42 1027.2
0.421 1166.3
0.422 1150.1
0.423 1113.3
0.424 1106.8
0.425 1140.4
0.426 1107.6
0.427 1069.7
0.428 1079.8
0.429 999.51
0.43 797.1
0.431 723.43
0.432 1203.1
0.433 1119.2
0.434 1033.7
0.435 1133.5
0.436 1242.9
0.437 1268.1
0.438 1112.5
0.439 1070.1
0.44 1226.3
0.441 1209.2
0.442 1294
0.443 1312.1
0.444 1278.3
0.445 1326.6
0.446 1189.2
0.447 1351.9
0.448 1367.8
0.449 1364.2
0.45 1413.9
0.451 1466.1
0.452 1403.2
0.453 1295.5
0.454 1389.2
0.455 1379
0.456 1424.1
0.457 1435.6
0.458 1404.5
0.459 1393
0.46 1383.6
0.461 1431.8
0.462 1444.8
0.463 1449.5
0.464 1405.1
0.465 1387.4
0.466 1416.4
0.467 1353.1
0.468 1411.5
0.469 1417.1
0.47 1362.1
0.471 1384.7
0.472 1456.2
0.473 1399.4
0.474 1414.7
0.475 1461
0.476 1410.7
0.477 1418.8
0.478 1464.4
0.479 1435.8
0.48 1459.3
0.481 1458.7
0.482 1463.9
0.483 1445.9
0.484 1418.4
0.485 1413.6
0.486 1146
0.487 1283.3
0.488 1388.7
0.489 1307.9
0.49 1461.2
0.491 1404.1
0.492 1338.5
0.493 1431.5
0.494 1397.2
0.495 1483.2
0.496 1410.1
0.497 1433.8
0.498 1394.4
0.499 1393.9
0.5 1388.7
0.501 1345.9
0.502 1344.7
0.503 1406.2
0.504 1310.4
0.505 1404.1
0.506 1460.3
0.507 1397
0.508 1361.4
0.509 1426.5
0.51 1389.2
0.511 1414.8
0.512 1452
0.513 1364
0.514 1334.9
0.515 1373.2
0.516 1385.5
0.517 1128.8
0.518 1290.7
0.519 1250.6
0.52 1365
0.521 1374.8
0.522 1405.3
0.523 1324.4
0.524 1424.1
0.525 1412.7
0.526 1373
0.527 1200.7
0.528 1374.2
0.529 1437.8
0.53 1381.7
0.531 1457
0.532 1430.5
0.533 1277.2
0.534 1367.9
0.535 1388.6
0.536 1447.8
0.537 1339.5
0.538 1406.4
0.539 1371.6
0.54 1324.2
0.541 1273
0.542 1385.7
0.543 1362.9
0.544 1410.6
0.545 1378.4
0.546 1365.6
0.547 1383.4
0.548 1344.1
0.549 1386.1
0.55 1375.3
0.551 1374.2
0.552 1402.7
0.553 1363.2
0.554 1390.2
0.555 1398.2
0.556 1374.6
0.557 1341.2
0.558 1370.4
0.559 1296.8
0.56 1320.2
0.561 1396.7
0.562 1329.7
0.563 1379.9
0.564 1352.7
0.565 1361.1
0.566 1287
0.567 1371.7
0.568 1359.1
0.569 1325.6
0.57 1326.4
0.571 1282.9
0.572 1354.8
0.573 1360.4
0.574 1353.1
0.575 1322.4
0.576 1311.3
0.577 1344.4
0.578 1302.9
0.579 1321.6
0.58 1343.8
0.581 1350
0.582 1370.7
0.583 1384.7
0.584 1381.7
0.585 1370.6
0.586 1337.4
0.587 1366.9
0.588 1335.7
0.589 1153.1
0.59 1225.9
0.591 1311
0.592 1283.3
0.593 1301.8
0.594 1295.5
0.595 1279.1
0.596 1317.9
0.597 1321.7
0.598 1305.4
0.599 1305.4
0.6 1318.4
0.601 1302.8
0.602 1283.1
0.603 1310.2
0.604 1333.2
0.605 1330.8
0.606 1324.2
0.607 1332.1
0.608 1327.7
0.609 1317.7
0.61 1312
0.611 1305.1
0.612 1324.5
0.613 1305.7
0.614 1265.8
0.615 1312.2
0.616 1277.5
0.617 1261.2
0.618 1308.8
0.619 1314.8
0.62 1315.1
0.621 1320.6
0.622 1272.9
0.623 1263.5
0.624 1259.2
0.625 1250.8
0.626 1249.3
0.627 1285.2
0.628 1215.1
0.629 1258
0.63 1241
0.631 1262
0.632 1215.3
0.633 1292.5
0.634 1272.4
0.635 1287.8
0.636 1258.3
0.637 1301.1
0.638 1309.6
0.639 1304
0.64 1276.7
0.641 1277.3
0.642 1279.5
0.643 1292.5
0.644 1286.7
0.645 1295.9
0.646 1258.6
0.647 1252.8
0.648 1240.6
0.649 1202
0.65 1208.5
0.651 1284.3
0.652 1233
0.653 1271.9
0.654 1257.7
0.655 1199.5
0.656 1053
0.657 1100.9
0.658 1230.6
0.659 1234.9
0.66 1242.5
0.661 1237.2
0.662 1226.8
0.663 1228.8
0.664 1239.6
0.665 1261.4
0.666 1260.3
0.667 1251.1
0.668 1255.2
0.669 1276.8
0.67 1259.1
0.671 1256.5
0.672 1238.8
0.673 1249.3
0.674 1247.4
0.675 1237
0.676 1251.2
0.677 1239.6
0.678 1245.9
0.679 1235.2
0.68 1237
0.681 1232.1
0.682 1237.8
0.683 1224.3
0.684 1216.2
0.685 1216.9
0.686 1.19E+03
0.687 8.57E+02
0.688 9.92E+02
0.689 9.98E+02
0.69 1.05E+03
0.691 1.09E+03
0.692 1.12E+03
0.693 1.12E+03
0.694 1.10E+03
0.695 1.12E+03
0.696 1.12E+03
0.697 1.18E+03
0.698 1.17E+03
0.699 1.14E+03
0.7 1.13E+03
0.701 1.12E+03
0.702 1.12E+03
0.703 1.13E+03
0.704 1.16E+03
0.705 1.17E+03
0.706 1.16E+03
0.707 1.16E+03
0.708 1.15E+03
0.709 1.16E+03
0.71 1.16E+03
0.711 1.16E+03
0.712 1153.2
0.713 1139.6
0.714 1149.4
0.715 1110.5
0.716 1121.7
0.717 976.81
0.718 908.46
0.719 814.65
0.72 869.54
0.721 957.98
0.722 1093.9
0.723 1009.3
0.724 931.04
0.725 915.61
0.726 953.65
0.727 956.89
0.728 917.3
0.729 922.97
0.73 995.1
0.731 943.76
0.732 1016.9
0.733 1054.4
0.734 1089.2
0.735 1073.4
0.736 1062.8
0.737 1061
0.738 1081.2
0.739 1049.1
0.74 1074.6
0.741 1070.4
0.742 1070.8
0.743 1093.1
0.744 1101.8
0.745 1101.2
0.746 1098.8
0.747 1099.3
0.748 1092.7
0.749 1088.9
0.75 1087.4
0.751 1082.5
0.752 1086.3
0.753 1080.7
0.754 1094.3
0.755 1091
0.756 1077.7
0.757 1076.6
0.758 1083.1
0.759 1052.4
0.76 234.79
0.761 135.9
0.762 606.41
0.763 334.87
0.764 475.27
0.765 604.97
0.766 718.17
0.767 858.57
0.768 981.36
0.769 993.61
0.77 1022.6
0.771 1029.3
0.772 1037.5
0.773 1036.8
0.774 1036.9
0.775 1036.8
0.776 1039.1
0.777 1032.9
0.778 1031.7
0.779 1036.2
0.78 1024.9
0.781 1022.4
0.782 1027.1
0.783 1022.9
0.784 1016
0.785 1020.4
0.786 1020.9
0.787 1008.5
0.788 995.63
0.789 991.47
0.79 960.93
0.791 973.85
0.792 964.61
0.793 957.79
0.794 966.26
0.795 962.7
0.796 946.02
0.797 960.97
0.798 979.19
0.799 960.15
0.8 944.34
0.801 954.75
0.802 955.83
0.803 938.22
0.804 949.18
0.805 928.29
0.806 966.02
0.807 955.84
0.808 952.44
0.809 928.35
0.81 929.3
0.811 926.96
0.812 903.63
0.813 887.52
0.814 795.23
0.815 787.89
0.816 732.47
0.817 749.73
0.818 723.98
0.819 796.48
0.82 758.41
0.821 877.58
0.822 837.07
0.823 592.1
0.824 822.54
0.825 852.6
0.826 821.38
0.827 865.98
0.828 747.55
0.829 817.33
0.83 805.66
0.831 812.59
0.832 786.48
0.833 840.98
0.834 821.32
0.835 881.85
0.836 854.79
0.837 887.04
0.838 878.09
0.839 880.03
0.84 892.67
0.841 887.69
0.842 876.15
0.843 883.33
0.844 866.64
0.845 893.07
0.846 895.03
0.847 871.24
0.848 871.63
0.849 866.14
0.85 785.07
0.851 856.39
0.852 851.41
0.853 847.52
0.854 747.58
0.855 801.89
0.856 854.68
0.857 870.81
0.858 870.99
0.859 870.74
0.86 867.63
0.861 866.4
0.862 873.08
0.863 878.31
0.864 859.49
0.865 845.48
0.866 745.18
0.867 803.48
0.868 841.83
0.869 833.32
0.87 849.08
0.871 837.02
0.872 848.38
0.873 839.86
0.874 825.14
0.875 813.24
0.876 835.94
0.877 838.86
0.878 835.51
0.879 821.59
0.88 824.2
0.881 796.99
0.882 817.83
0.883 814.96
0.884 818.28
0.885 828.09
0.886 795.87
0.887 798.5
0.888 808.68
0.889 819.42
0.89 810.13
0.891 811.73
0.892 796.75
0.893 765.58
0.894 746.38
0.895 713.39
0.896 668.72
0.897 583.91
0.898 629.5
0.899 481.44
0.9 651.11
0.901 525.69
0.902 585.62
0.903 604.01
0.904 740.13
0.905 716.11
0.906 679.76
0.907 559.87
0.908 571.74
0.909 617.31
0.91 547.68
0.911 585.61
0.912 603.78
0.913 550.79
0.914 549.17
0.915 594.51
0.916 505.36
0.917 639.7
0.918 519.51
0.919 647.2
0.92 651.87
0.921 683.53
0.922 613.38
0.923 652.4
0.924 631.92
0.925 622.84
0.926 615.92
0.927 689.37
0.928 516.6
0.929 483
0.93 378.74
0.931 358.69
0.932 263.81
0.933 217.85
0.934 126.16
0.935 219.98
0.936 141.59
0.937 143.31
0.938 175.91
0.939 349.55
0.94 413.34
0.941 325.98
0.942 355.16
0.943 244.02
0.944 250.52
0.945 322.67
0.946 170.65
0.947 325.22
0.948 240.39
0.949 432.64
0.95 129.14
0.951 423.71
0.952 235.72
0.953 301.11
0.954 371.5
0.955 298.91
0.956 287.58
0.957 237.22
0.958 403.73
0.959 327.52
0.96 368.46
0.961 403.9
0.962 386.88
0.963 442.19
0.964 401.59
0.965 441.03
0.966 440.15
0.967 439.86
0.968 570.52
0.969 600.28
0.97 555.24
0.971 624.45
0.972 601.52
0.973 530.69
0.974 503.44
0.975 516.18
0.976 500.5
0.977 558.7
0.978 538.17
0.979 558.27
0.98 529.08
0.981 623.92
0.982 605.46
0.983 584.91
0.984 644.76
0.985 601.91
0.986 656.54
0.987 646.48
0.988 642.41
0.989 654.95
0.99 640.33
0.991 658.92
0.992 656.68
0.993 644.69
0.994 659.33
0.995 657.27
0.996 654.73
0.997 646.76
0.998 646.01
0.999 645.72
1 642.88
1.001 650.8
1.002 636.53
1.003 642.07
1.004 632.42
1.005 596.03
1.006 622.97
1.007 636.09
1.008 635.5
1.009 629.25
1.01 628.75
1.011 631.92
1.012 628.44
1.013 627.4
1.014 630.07
1.015 619.14
1.016 621.88
1.017 614.97
1.018 624.47
1.019 602.25
1.02 611.16
1.021 613.61
1.022 603.1
1.023 607.8
1.024 603.88
1.025 609.95
1.026 608.95
1.027 606.07
1.028 606.77
1.029 600.14
1.03 603.88
1.031 601.11
1.032 601.58
1.033 591.32
1.034 594.86
1.035 596.79
1.036 596.52
1.037 590.37
1.038 587.52
1.039 591.57
1.04 587.5
1.041 587.58
1.042 587.79
1.043 581.88
1.044 584.56
1.045 581.23
1.046 566.05
1.047 574.63
1.048 579.7
1.049 576.38
1.05 572.6
1.051 573.1
1.052 569.57
1.053 567.81
1.054 565.41
1.055 567.16
1.056 565.36
1.057 563.97
1.058 558.14
1.059 541.12
1.06 556.08
1.061 543.28
1.062 553.29
1.063 544.28
1.064 552.64
1.065 550.16
1.066 539.66
1.067 542.45
1.068 541.69
1.069 512.67
1.07 528.8
1.071 539.21
1.072 538.12
1.073 527.84
1.074 543.51
1.075 518.14
1.076 537.51
1.077 528.46
1.078 527.48
1.079 528.8
1.08 522.24
1.081 507.89
1.082 515.34
1.083 522.98
1.084 505.87
1.085 518.77
1.086 484.57
1.087 495.75
1.088 518.64
1.089 506.45
1.09 485.97
1.091 514.43
1.092 508.2
1.093 446.52
1.094 471.82
1.095 455.3
1.096 440.08
1.097 505.78
1.098 439.8
1.099 443.99
1.1 424.86
1.101 434.62
1.102 410.02
1.103 407.86
1.104 408.96
1.105 442.79
1.106 348.05
1.107 422.34
1.108 363.51
1.109 361
1.11 418.79
1.111 290.03
1.112 361.65
1.113 234.92
1.114 262.31
1.115 218.62
1.116 176.21
1.117 69.704
1.118 190.33
1.119 99.061
1.12 124.18
1.121 162.63
1.122 71.503
1.123 112.17
1.124 95.129
1.125 126.25
1.126 45.157
1.127 137.58
1.128 86.832
1.129 92.673
1.13 61.763
1.131 258.43
1.132 204.73
1.133 134.11
1.134 36.529
1.135 13.533
1.136 112.63
1.137 251.6
1.138 177.75
1.139 260.88
1.14 223.76
1.141 169.07
1.142 196.51
1.143 272.46
1.144 99.052
1.145 127.7
1.146 137.83
1.147 51.763
1.148 236.9
1.149 190.99
1.15 106.36
1.151 177.76
1.152 216.35
1.153 208.05
1.154 124.55
1.155 273.48
1.156 245.34
1.157 274.69
1.158 272.18
1.159 294.13
1.16 250.15
1.161 303.33
1.162 305.51
1.163 408.69
1.164 350.64
1.165 339.09
1.166 327.16
1.167 357.63
1.168 365.97
1.169 369.01
1.17 400.02
1.171 390.97
1.172 396.63
1.173 398.01
1.174 294.01
1.175 394.48
1.176 415.67
1.177 411.83
1.178 314.08
1.179 421.67
1.18 384.29
1.181 396.87
1.182 282.05
1.183 382.53
1.184 366.18
1.185 355.37
1.186 416.03
1.187 397.43
1.188 292.39
1.189 362.53
1.19 403.19
1.191 389.49
1.192 412.75
1.193 396.21
1.194 408.86
1.195 389.77
1.196 376.15
1.197 415.98
1.198 378.36
1.199 318.27
1.2 390.8
1.201 381.09
1.202 381.16
1.203 378.43
1.204 316.12
1.205 380.87
1.206 419.02
1.207 374.7
1.208 377.8
1.209 361.07
1.21 395.08
1.211 368.07
1.212 370.33
1.213 409.14
1.214 378.3
1.215 372.86
1.216 406.4
1.217 396.74
1.218 400.27
1.219 389.23
1.22 399.17
1.221 405.48
1.222 393.38
1.223 387.01
1.224 390.53
1.225 402.94
1.226 408.01
1.227 377.44
1.228 406.62
1.229 407.18
1.23 400.94
1.231 411.37
1.232 406.41
1.233 395.69
1.234 409.76
1.235 405.31
1.236 408.83
1.237 403.9
1.238 407.88
1.239 403.3
1.24 401.61
1.241 402.67
1.242 403.12
1.243 398.84
1.244 396.89
1.245 398
1.246 400.54
1.247 398.81
1.248 399.81
1.249 400.74
1.25 398.47
1.251 394.58
1.252 393.17
1.253 390.36
1.254 386.8
1.255 392.95
1.256 383.84
1.257 379.56
1.258 387.95
1.259 372.54
1.26 375.89
1.261 358.8
1.262 345.04
1.263 348.96
1.264 323.97
1.265 345.03
1.266 335.95
1.267 338.5
1.268 323.09
1.269 215.13
1.27 337.79
1.271 355.84
1.272 356.31
1.273 354.1
1.274 354
1.275 359.38
1.276 363.39
1.277 366.07
1.278 372.7
1.279 370.04
1.28 367.84
1.281 360.26
1.282 325.12
1.283 355
1.284 366.73
1.285 369.53
1.286 372.27
1.287 367.92
1.288 365.97
1.289 356.82
1.29 359.85
1.291 364.22
1.292 345.38
1.293 359.63
1.294 352.35
1.295 353.16
1.296 339.62
1.297 323.73
1.298 341.57
1.299 356.09
1.3 307.91
1.301 315.86
1.302 341.52
1.303 301.85
1.304 262.16
1.305 334.53
1.306 335.14
1.307 266.77
1.308 302.45
1.309 334.78
1.31 262.58
1.311 290.85
1.312 290.59
1.313 273.31
1.314 251.41
1.315 249.19
1.316 282.57
1.317 272.11
1.318 290.46
1.319 234.15
1.32 225.59
1.321 260.34
1.322 263.39
1.323 203.01
1.324 228.86
1.325 280.82
1.326 244.52
1.327 232.1
1.328 204.47
1.329 154.9
1.33 199.88
1.331 126.34
1.332 127.19
1.333 177.07
1.334 147.63
1.335 201.55
1.336 160.02
1.337 143.53
1.338 155.3
1.339 154.22
1.34 146.81
1.341 148.63
1.342 155.24
1.343 110.91
1.344 66.029
1.345 95.158
1.346 50.796
1.347 52.483
1.348 4.1439
1.349 14.11
1.35 13.994
1.351 4.0434
1.352 1.3244
1.353 0.083929
1.354 0.25336
1.355 0.0031472
1.356 0.041984
1.357 0.062699
1.358 0.0036639
1.359 0.00064147
1.36 0.0018696
1.361 4.2043E-06
1.362 1.5789E-08
1.363 0.0027571
1.364 0.0011871
1.365 7.9285E-09
1.366 0.011173
1.367 0.0043469
1.368 1.292E-10
1.369 0.00045132
1.37 0.00025508
1.371 0.000017237
1.372 0.0024023
1.373 0.03879
1.374 0.15654
1.375 0.28247
1.376 0.22495
1.377 0.1072
1.378 0.96884
1.379 0.04558
1.38 0.071291
1.381 0.0020724
1.382 0.0022432
1.383 0.000038464
1.384 0.00053909
1.385 0.0018264
1.386 0.0022037
1.387 0.1739
1.388 0.0035194
1.389 0.5079
1.39 0.43123
1.391 0.30058
1.392 0.02079
1.393 0.10129
1.394 0.066036
1.395 0.00058704
1.396 5.5277E-06
1.397 0.042899
1.398 1.1109
1.399 0.71035
1.4 2.8394E-06
1.401 9.2074E-06
1.402 1.6052
1.403 2.0818
1.404 0.64643
1.405 0.00031885
1.406 1.7891
1.407 0.15275
1.408 1.4433
1.409 0.54187
1.41 0.4083
1.411 1.8504
1.412 2.3102
1.413 20.437
1.414 0.31843
1.415 0.16078
1.416 31.129
1.417 10.294
1.418 11.87
1.419 1.8774
1.42 7.2427
1.421 8.024
1.422 40.546
1.423 8.0739
1.424 14.865
1.425 22.637
1.426 24.338
1.427 43.383
1.428 3.9931
1.429 33.297
1.43 53.944
1.431 43.927
1.432 2.2073
1.433 31.388
1.434 18.364
1.435 18.763
1.436 33.596
1.437 26.177
1.438 11.62
1.439 44.707
1.44 34.691
1.441 27.86
1.442 31.816
1.443 39.477
1.444 54.127
1.445 43.584
1.446 20.236
1.447 31.729
1.448 101.3
1.449 89.439
1.45 24.018
1.451 9.8767
1.452 54.63
1.453 71.807
1.454 120.46
1.455 57.947
1.456 77.521
1.457 102.46
1.458 119.45
1.459 142.75
1.46 74.815
1.461 79.064
1.462 114.35
1.463 37.868
1.464 132.92
1.465 81.778
1.466 57.107
1.467 31.586
1.468 67.386
1.469 83.055
1.47 43.517
1.471 15.637
1.472 40.968
1.473 61.475
1.474 85.223
1.475 161.54
1.476 60.227
1.477 61.06
1.478 55.581
1.479 105.03
1.48 53.093
1.481 100.9
1.482 51.206
1.483 129.98
1.484 120.27
1.485 109.4
1.486 107.96
1.487 53.063
1.488 82.39
1.489 165.86
1.49 152.81
1.491 172.87
1.492 143.73
1.493 158.71
1.494 177.99
1.495 159.55
1.496 147.3
1.497 199.62
1.498 165.76
1.499 190.09
1.5 218.87
1.501 231.87
1.502 204.01
1.503 161.58
1.504 140.09
1.505 160.78
1.506 225.07
1.507 222.83
1.508 212.26
1.509 163.32
1.51 236.24
1.511 231.2
1.512 227.65
1.513 211.7
1.514 197.16
1.515 232.04
1.516 224.29
1.517 217.72
1.518 220.19
1.519 213.44
1.52 230.98
1.521 240.16
1.522 230.35
1.523 244.53
1.524 240.47
1.525 226.05
1.526 233.57
1.527 228.99
1.528 243.88
1.529 237.92
1.53 222.88
1.531 235.57
1.532 243.12
1.533 242.03
1.534 234.87
1.535 233.08
1.536 239.87
1.537 238.78
1.538 237.6
1.539 238.42
1.54 231.39
1.541 235.01
1.542 235.23
1.543 237.69
1.544 237.71
1.545 242.03
1.546 240.07
1.547 238.56
1.548 233.01
1.549 238.83
1.55 235.75
1.551 236.36
1.552 237.46
1.553 237.02
1.554 231.28
1.555 233.78
1.556 229.86
1.557 236.44
1.558 234.58
1.559 234.23
1.56 232.14
1.561 235.92
1.562 233.78
1.563 233.01
1.564 229.49
1.565 233.54
1.566 229.32
1.567 229.87
1.568 224.75
1.569 222.4
1.57 211.25
1.571 205.42
1.572 207.74
1.573 204.52
1.574 210.96
1.575 209.45
1.576 215.61
1.577 188.76
1.578 205.48
1.579 206.83
1.58 213.74
1.581 217.28
1.582 211.38
1.583 216.27
1.584 217.57
1.585 226.04
1.586 223.37
1.587 221.05
1.588 219.33
1.589 202.96
1.59 211.22
1.591 211.38
1.592 220.37
1.593 225.68
1.594 223.87
1.595 225.61
1.596 213.63
1.597 215.73
1.598 222.1
1.599 211.46
1.6 208.05
1.601 195.07
1.602 195.86
1.603 195.73
1.604 199.62
1.605 206.96
1.606 210.95
1.607 203.59
1.608 200.94
1.609 198.64
1.61 190.18
1.611 198.22
1.612 201.67
1.613 207.29
1.614 208.33
1.615 210.65
1.616 201.44
1.617 205.06
1.618 212.82
1.619 210.61
1.62 204.93
1.621 204.77
1.622 207.6
1.623 211.9
1.624 212.11
1.625 207.85
1.626 209.51
1.627 210.44
1.628 210.86
1.629 210.96
1.63 206.71
1.631 208.07
1.632 208.2
1.633 203.36
1.634 203.49
1.635 204.24
1.636 205.74
1.637 198.41
1.638 192.36
1.639 192.52
1.64 188.03
1.641 191.95
1.642 193.02
1.643 188.25
1.644 195.41
1.645 190.75
1.646 190.12
1.647 199.01
1.648 189.3
1.649 191.14
1.65 196.91
1.651 182.31
1.652 195.57
1.653 194.73
1.654 188.68
1.655 194.34
1.656 193.21
1.657 194.27
1.658 196.58
1.659 193.37
1.66 195.24
1.661 195.7
1.662 191.54
1.663 194.4
1.664 193.21
1.665 185.18
1.666 156.41
1.667 184.23
1.668 187.64
1.669 188.15
1.67 193.85
1.671 191.33
1.672 184.93
1.673 189.15
1.674 188.69
1.675 186.81
1.676 184.93
1.677 185.67
1.678 182.94
1.679 186.32
1.68 179.81
1.681 170.09
1.682 178.12
1.683 182.85
1.684 173.18
1.685 186.49
1.686 183.9
1.687 179.17
1.688 183.79
1.689 181.21
1.69 179.52
1.691 168.87
1.692 181.15
1.693 184.86
1.694 179.12
1.695 183.41
1.696 183.02
1.697 158.42
1.698 181.41
1.699 179.77
1.7 174.73
1.702 178.41
1.705 173
1.71 164.36
1.715 165.9
1.72 163.55
1.725 155.76
1.73 152.26
1.735 141.29
1.74 147.07
1.745 135.38
1.75 144.85
1.755 133.79
1.76 139.85
1.765 116.15
1.77 123.89
1.775 100.42
1.78 87.878
1.785 67.322
1.79 77.736
1.795 41.047
1.8 27.841
1.805 12.96
1.81 8.478
1.815 2.871
1.82 0.86394
1.825 1.1148
1.83 0.0045527
1.835 0.0056158
1.84 0.000054862
1.845 0.0054821
1.85 0.0026245
1.855 0.00024848
1.86 0.0097591
1.865 0.014871
1.87 2.3356E-07
1.875 3.9555E-07
1.88 0.067956
1.885 0.038492
1.89 0.1959
1.895 0.11365
1.9 0.00075708
1.905 0.00049736
1.91 0.020252
1.915 0.017529
1.92 0.39598
1.925 0.82241
1.93 0.48521
1.935 3.1554
1.94 2.8817
1.945 9.5351
1.95 14.678
1.955 8.803
1.96 19.205
1.965 25.033
1.97 42.792
1.975 59.423
1.98 66.108
1.985 72.709
1.99 74.952
1.995 71.104
2 33.443
2.005 13.157
2.01 34.869
2.015 23.393
2.02 39.501
2.025 64.995
2.03 74.538
2.035 84.678
2.04 78.899
2.045 80.051
2.05 59.729
2.055 48.293
2.06 60.857
2.065 54.427
2.07 57.777
2.075 68.126
2.08 76.363
2.085 74.855
2.09 78.362
2.095 78.929
2.1 75.751
2.105 81.905
2.11 78.814
2.115 80.579
2.12 76.974
2.125 77.877
2.13 78.866
2.135 79.085
2.14 79.71
2.145 78.582
2.15 74.327
2.155 74.498
2.16 73.909
2.165 67.008
2.17 71.997
2.175 70.638
2.18 71.829
2.185 65.461
2.19 69.423
2.195 69.355
2.2 62.525
2.205 64.994
2.21 69.651
2.215 66.987
2.22 68.27
2.225 66.28
2.23 66.57
2.235 65.287
2.24 64.261
2.245 62.273
2.25 63.272
2.255 59.555
2.26 58.91
2.265 59.988
2.27 57.118
2.275 56.376
2.28 58.37
2.285 55.55
2.29 55.676
2.295 53.953
2.3 51.804
2.305 52.111
2.31 56.242
2.315 51.196
2.32 45.817
2.325 49.495
2.33 50.028
2.335 51.03
2.34 40.352
2.345 45.245
2.35 36.565
2.355 41.786
2.36 44.217
2.365 43.489
2.37 27.129
2.375 38.855
2.38 37.451
2.385 27.133
2.39 32.662
2.395 35.727
2.4 38.86
2.405 29.579
2.41 29.77
2.415 24.041
2.42 23.417
2.425 29.141
2.43 39.733
2.435 13.115
2.44 38.131
2.445 18.348
2.45 12.01
2.455 21.932
2.46 29.447
2.465 21.321
2.47 14.772
2.475 14.535
2.48 7.1033
2.485 4.9581
2.49 3.1037
2.495 2.5434
2.5 6.2438
2.505 1.3426
2.51 1.9587
2.515 0.45847
2.52 0.32739
2.525 0.036569
2.53 0.00056174
2.535 0.00015459
2.54 0.00033307
2.545 4.7463E-08
2.55 2.4914E-10
2.555 9.2109E-07
2.56 2.7377E-08
2.565 1.4066E-11
2.57 1.3449E-15
2.575 9.5053E-25
2.58 3.3673E-19
2.585 1.5148E-31
2.59 4.8261E-28
2.595 2.0119E-30
2.6 3.955E-25
2.605 5.112E-32
2.61 5.2344E-31
2.615 9.8579E-35
2.62 4.9756E-26
2.625 3.4064E-25
2.63 0
2.635 3.4367E-13
2.64 1.0347E-13
2.645 7.9253E-16
2.65 1.2591E-16
2.655 1.1571E-24
2.66 2.2969E-22
2.665 9.8033E-35
2.67 0
2.675 0
2.68 0
2.685 0
2.69 9.0328E-27
2.695 6.3027E-30
2.7 0
2.705 0
2.71 9.9745E-33
2.715 3.4211E-23
2.72 0
2.725 6.4865E-19
2.73 5.4069E-16
2.735 4.8914E-18
2.74 2.0796E-24
2.745 1.1734E-20
2.75 1.487E-25
2.755 0
2.76 0
2.765 2.3958E-24
2.77 7.5E-21
2.775 3.5811E-35
2.78 4.3061E-31
2.785 3.4829E-24
2.79 1.0909E-13
2.795 3.2465E-13
2.8 1.4785E-09
2.805 6.0533E-11
2.81 3.6103E-07
2.815 2.5743E-07
2.82 1.8442E-08
2.825 0.00015803
2.83 0.0035019
2.835 1.9103E-07
2.84 0.00017609
2.845 0.036437
2.85 0.0010387
2.855 0.00040297
2.86 0.022774
2.865 0.15057
2.87 0.0056706
2.875 0.35186
2.88 0.22211
2.885 0.40724
2.89 0.16731
2.895 2.3936
2.9 0.72907
2.905 0.099685
2.91 2.4455
2.915 1.1304
2.92 2.6008
2.925 0.97348
2.93 5.2882
2.935 5.8311
2.94 1.462
2.945 1.3018
2.95 4.6965
2.955 2.0988
2.96 4.13
2.965 6.6823
2.97 0.31653
2.975 0.76747
2.98 1.2021
2.985 6.2552
2.99 9.2348
2.995 3.8409
3 7.0494
3.005 2.5964
3.01 6.1512
3.015 4.9897
3.02 0.56916
3.025 6.7394
3.03 5.4564
3.035 2.244
3.04 1.8179
3.045 3.78
3.05 0.9269
3.055 0.25994
3.06 5.658
3.065 2.614
3.07 1.5705
3.075 5.4065
3.08 3.2518
3.085 1.5863
3.09 2.1368
3.095 0.58802
3.1 3.95
3.105 0.82706
3.11 0.75892
3.115 2.0349
3.12 8.8117
3.125 2.7178
3.13 5.1691
3.135 10.269
3.14 2.982
3.145 2.9169
3.15 5.9866
3.155 5.0554
3.16 8.2796
3.165 12.57
3.17 11.223
3.175 8.276
3.18 9.5228
3.185 7.2458
3.19 3.7999
3.195 2.4136
3.2 0.39297
3.205 0.2776
3.21 0.12219
3.215 0.44585
3.22 1.4417
3.225 0.17808
3.23 0.30535
3.235 6.5346
3.24 3.3562
3.245 0.65762
3.25 2.335
3.255 8.9012
3.26 1.097
3.265 2.191
3.27 1.0913
3.275 5.3072
3.28 2.5649
3.285 9.9636
3.29 7.8402
3.295 1.0953
3.3 1.593
3.305 3.5285
3.31 3.5123
3.315 0.014442
3.32 0.053699
3.325 3.1499
3.33 4.1732
3.335 8.1195
3.34 3.0981
3.345 3.1707
3.35 7.1898
3.355 3.2524
3.36 4.6949
3.365 6.4435
3.37 3.5301
3.375 7.5796
3.38 4.5823
3.385 6.7151
3.39 8.837
3.395 8.5613
3.4 11.219
3.405 3.9998
3.41 6.351
3.415 6.5283
3.42 11.811
3.425 8.9766
3.43 7.795
3.435 10.363
3.44 7.2066
3.445 10.151
3.45 10.003
3.455 7.4514
3.46 11.237
3.465 8.8032
3.47 10.996
3.475 9.8109
3.48 10.063
3.485 10.842
3.49 9.3397
3.495 10.994
3.5 10.682
3.505 10.586
3.51 10.722
3.515 10.297
3.52 10.854
3.525 10.23
3.53 9.9587
3.535 8.4611
3.54 8.0799
3.545 8.5366
3.55 9.4253
3.555 8.1007
3.56 9.6523
3.565 9.7018
3.57 7.4537
3.575 7.7271
3.58 9.1055
3.585 8.1931
3.59 8.4476
3.595 8.6414
3.6 9.1697
3.605 9.2562
3.61 8.4689
3.615 8.4629
3.62 10.376
3.625 9.1464
3.63 8.8925
3.635 9.1996
3.64 10.254
3.645 9.467
3.65 9.0411
3.655 9.804
3.66 9.7468
3.665 9.1559
3.67 7.0548
3.675 4.3118
3.68 7.4388
3.685 8.4259
3.69 8.6524
3.695 9.0447
3.7 9.7097
3.705 9.6122
3.71 8.3569
3.715 8.2327
3.72 9.2587
3.725 9.5451
3.73 8.2715
3.735 7.6581
3.74 7.8945
3.745 9.2156
3.75 8.2868
3.755 8.02
3.76 7.905
3.765 7.6253
3.77 8.1365
3.775 8.0716
3.78 8.5369
3.785 7.8568
3.79 6.9149
3.795 7.9063
3.8 8.7882
3.805 8.2933
3.81 7.3482
3.815 6.9128
3.82 8.6034
3.825 8.4697
3.83 8.5466
3.835 6.8527
3.84 7.9959
3.845 7.8211
3.85 7.863
3.855 7.5784
3.86 7.1196
3.865 7.2129
3.87 6.5551
3.875 6.0217
3.88 5.8185
3.885 6.0301
3.89 6.1279
3.895 6.6566
3.9 7.0565
3.905 7.0576
3.91 6.3527
3.915 6.2204
3.92 6.1844
3.925 6.1
3.93 6.2762
3.935 6.5464
3.94 6.5895
3.945 6.7124
3.95 6.789
3.955 6.871
3.96 6.8958
3.965 6.9468
3.97 6.8352 
3.975 6.6828 
3.98 6.5735 
3.985 6.6138 
3.99 6.5597 
3.995 6.4149 
4 6.3204 
