Description: ASTM G173-03 (Table 2), Direct Normal Irradiance on 37 degree Tilt at Air Mass 1.5 - Standard Curve in Wm-2nm-1. Direct normal spectral irradiance at lam, centered on lam. Converted to W m-2 um-1. Total irradiance is 900.14 W/m2.
Type: Source
Wavelength Units: micron

0.28 2.5361E-23                                              
0.2805 1.0917E-21                                              
0.281 6.1253E-21                                              
0.2815 2.7479E-19                                              
0.282 2.8346E-18                                              
0.2825 1.3271E-17                                              
0.283 6.7646E-17                                              
0.2835 1.4614E-16                                              
0.284 4.9838E-15                                              
0.2845 2.1624E-14                                              
0.285 8.9998E-14                                              
0.2855 6.4424E-13
0.286 2.3503E-12
0.2865 1.8458E-11
0.287 7.2547E-11
0.2875 3.6618E-10
0.288 2.8061E-09
0.2885 9.0651E-09
0.289 3.4978E-08
0.2895 1.5368E-07
0.29 5.1454E-07
0.2905 1.3303E-06
0.291 3.8965E-06
0.2915 0.000014425
0.292 0.000040789
0.2925 0.000070414
0.293 0.0001576
0.2935 0.00047095
0.294 0.00094558
0.2945 0.0015965
0.295 0.0032246
0.2955 0.0080206
0.296 0.014737
0.2965 0.023312
0.297 0.033187
0.2975 0.067912
0.298 0.11127
0.2985 0.1427
0.299 0.20323
0.2995 0.37387
0.3 0.45631
0.3005 0.57207
0.301 0.91926
0.3015 1.3201
0.302 1.457
0.3025 2.191
0.303 3.7332
0.3035 4.8044
0.304 5.0973
0.3045 6.4675
0.305 8.9336
0.3055 10.186
0.306 10.15
0.3065 11.568
0.307 15.246
0.3075 19.468
0.308 20.753
0.3085 22.75
0.309 22.298
0.3095 23.672
0.31 27.826
0.3105 35.879
0.311 45.392
0.3115 46.156
0.312 50.898
0.3125 53.766
0.313 58.323
0.3135 58.999
0.314 65.266
0.3145 70.476
0.315 73.686
0.3155 64.833
0.316 67.088
0.3165 81.118
0.317 93.02
0.3175 99.712
0.318 95.815
0.3185 100.05
0.319 109.71
0.3195 106.93
0.32 112.77
0.3205 133.05
0.321 134.14
0.3215 128.17
0.322 122
0.3225 119.7
0.323 116.23
0.3235 133.93
0.324 148.52
0.3245 154.67
0.325 155.04
0.3255 179.36
0.326 208.68
0.3265 221.62
0.327 218.34
0.3275 212.85
0.328 197.73
0.3285 206.75
0.329 232.97
0.3295 258.64
0.33 261.92
0.3305 241.03
0.331 228.35
0.3315 236.35
0.332 245.08
0.3325 246.55
0.333 242.63
0.3335 232.65
0.334 238.23
0.3345 254.34
0.335 264.77
0.3355 258.94
0.336 238.13
0.3365 220.99
0.337 217.67
0.3375 234.34
0.338 253.21
0.3385 265.49
0.339 270.96
0.3395 278.47
0.34 296.59
0.3405 296.74
0.341 279.32
0.3415 278.53
0.342 291.21
0.3425 302.96
0.343 308.57
0.3435 292.46
0.344 253.52
0.3445 244.39
0.345 278.54
0.3455 297.61
0.346 291.32
0.3465 297.47
0.347 303.18
0.3475 293.51
0.348 293.06
0.3485 298.84
0.349 288.64
0.3495 297.2
0.35 329.13
0.3505 354.71
0.351 346.03
0.3515 333.88
0.352 326.74
0.3525 309.54
0.353 329.75
0.3535 363.51
0.354 385.23
0.3545 390.43
0.355 391.4
0.3555 378.78
0.356 356.27
0.3565 334.95
0.357 295.27
0.3575 299.5
0.358 279.36
0.3585 259.98
0.359 306.5
0.3595 370.13
0.36 392.4
0.3605 371.67
0.361 342.78
0.3615 336.47
0.362 353.5
0.3625 388.04
0.363 400.05
0.3635 389.94
0.364 404.72
0.3645 401.79
0.365 418.1
0.3655 461.1
0.366 495.08
0.3665 496.94
0.367 488.69
0.3675 480.41
0.368 453.19
0.3685 451.06
0.369 472.44
0.3695 508.56
0.37 516.66
0.3705 467.98
0.371 476.28
0.3715 495.87
0.372 465.06
0.3725 443.89
0.373 428.33
0.3735 386.82
0.374 386.51
0.3745 384.35
0.375 410.87
0.3755 455.14
0.376 472.18
0.3765 465.38
0.377 500.14
0.3775 558.9
0.378 603.14
0.3785 588.92
0.379 526.16
0.3795 472.55
0.38 497.51
0.3805 533.96
0.381 544.24
0.3815 491.35
0.382 419.58
0.3825 363.61
0.383 326.48
0.3835 316.58
0.384 366.89
0.3845 442.39
0.385 486.38
0.3855 465.49
0.386 449.84
0.3865 468.48
0.387 473.43
0.3875 467.31
0.388 463.5
0.3885 460.96
0.389 501.21
0.3895 556.37
0.39 584.57
0.3905 590.38
0.391 626.34
0.3915 636.17
0.392 586.56
0.3925 489.61
0.393 355.02
0.3935 282.72
0.394 367.8
0.3945 508.11
0.395 600.96
0.3955 641.01
0.396 564.43
0.3965 411.01
0.397 318.82
0.3975 471.51
0.398 639.44
0.3985 756.22
0.399 804.08
0.3995 829.8
0.4 839.89
0.401 876.91
0.402 913.87
0.403 882.11
0.404 898.49
0.405 878.49
0.406 858.78
0.407 845.45
0.408 884.88
0.409 947.17
0.41 809.1
0.411 907.7
0.412 966.86
0.413 929.51
0.414 921.34
0.415 955.69
0.416 986.28
0.417 963.92
0.418 923.92
0.419 963.54
0.42 884.67
0.421 1006.7
0.422 994.99
0.423 965.31
0.424 961.82
0.425 993.12
0.426 966.67
0.427 935.5
0.428 946.25
0.429 877.66
0.43 701.34
0.431 637.79
0.432 1062.8
0.433 990.5
0.434 916.53
0.435 1007
0.436 1106.1
0.437 1130.6
0.438 993.68
0.439 957.53
0.44 1099.3
0.441 1085.9
0.442 1164
0.443 1182.3
0.444 1153.7
0.445 1199.2
0.446 1076.6
0.447 1225.7
0.448 1242.2
0.449 1240.9
0.45 1288.1
0.451 1337.6
0.452 1282.2
0.453 1185.4
0.454 1273
0.455 1265.5
0.456 1308.8
0.457 1321.3
0.458 1294.6
0.459 1285.9
0.46 1279.1
0.461 1325.5
0.462 1339.2
0.463 1345.2
0.464 1305.5
0.465 1290.5
0.466 1319
0.467 1261.6
0.468 1317.8
0.469 1324.7
0.47 1274.9
0.471 1297.5
0.472 1366.1
0.473 1314.4
0.474 1330.4
0.475 1375.5
0.476 1329.9
0.477 1339.2
0.478 1383.9
0.479 1358.6
0.48 1382.5
0.481 1383.6
0.482 1389.9
0.483 1374.2
0.484 1349.2
0.485 1345.7
0.486 1091.8
0.487 1223.5
0.488 1325.2
0.489 1249.2
0.49 1396.8
0.491 1343.5
0.492 1281.8
0.493 1371.9
0.494 1340.2
0.495 1423.8
0.496 1354.8
0.497 1378.8
0.498 1342.1
0.499 1342.9
0.5 1339.1
0.501 1299
0.502 1299.1
0.503 1359.7
0.504 1268.2
0.505 1359.8
0.506 1415.3
0.507 1354.8
0.508 1321
0.509 1385
0.51 1349.7
0.511 1375.3
0.512 1412.5
0.513 1327.7
0.514 1300.3
0.515 1338.5
0.516 1351.4
0.517 1101.7
0.518 1260.5
0.519 1222.2
0.52 1334.9
0.521 1345.2
0.522 1376
0.523 1297.6
0.524 1396.2
0.525 1385.9
0.526 1347.9
0.527 1179.5
0.528 1350.8
0.529 1414.2
0.53 1359.8
0.531 1434.8
0.532 1409.4
0.533 1259
0.534 1349.1
0.535 1370.1
0.536 1429.2
0.537 1322.9
0.538 1389.6
0.539 1355.8
0.54 1309.6
0.541 1259.5
0.542 1371.4
0.543 1349.3
0.544 1397.1
0.545 1365.7
0.546 1353.6
0.547 1371.7
0.548 1333.1
0.549 1375.2
0.55 1364.8
0.551 1363.9
0.552 1392.3
0.553 1353.3
0.554 1380.2
0.555 1388.3
0.556 1365.1
0.557 1332.1
0.558 1361.3
0.559 1288.5
0.56 1311.8
0.561 1388.5
0.562 1322.5
0.563 1373.1
0.564 1346.6
0.565 1355.5
0.566 1282.3
0.567 1367.3
0.568 1355.4
0.569 1322.8
0.57 1324
0.571 1281
0.572 1353.4
0.573 1359.5
0.574 1352.7
0.575 1322.5
0.576 1311.8
0.577 1345.2
0.578 1304
0.579 1323
0.58 1345.5
0.581 1351.8
0.582 1372.9
0.583 1387.2
0.584 1384.5
0.585 1373.7
0.586 1340.9
0.587 1370.8
0.588 1340.3
0.589 1158.2
0.59 1231.6
0.591 1317.1
0.592 1290
0.593 1308.6
0.594 1302.9
0.595 1287
0.596 1326
0.597 1330.3
0.598 1314.2
0.599 1314.5
0.6 1327.8
0.601 1312.3
0.602 1292.8
0.603 1320.5
0.604 1343.9
0.605 1341.8
0.606 1335.3
0.607 1343.4
0.608 1339.2
0.609 1329.2
0.61 1323.7
0.611 1317
0.612 1337
0.613 1318.2
0.614 1278.3
0.615 1325.4
0.616 1290.6
0.617 1274.4
0.618 1322.8
0.619 1329.2
0.62 1329.9
0.621 1335.9
0.622 1288.2
0.623 1279.3
0.624 1275.1
0.625 1266.7
0.626 1265.5
0.627 1302.2
0.628 1232.8
0.629 1275.8
0.63 1258.9
0.631 1279.9
0.632 1232.7
0.633 1311
0.634 1290.7
0.635 1306.5
0.636 1276.8
0.637 1320.4
0.638 1329.2
0.639 1323.8
0.64 1296.2
0.641 1297
0.642 1299.5
0.643 1313
0.644 1307.4
0.645 1317
0.646 1279.7
0.647 1274.4
0.648 1262.5
0.649 1223.4
0.65 1229.9
0.651 1307.1
0.652 1255.8
0.653 1295
0.654 1280.7
0.655 1222
0.656 1072.7
0.657 1121.8
0.658 1254
0.659 1258.6
0.66 1266.8
0.661 1261.8
0.662 1251.8
0.663 1253.9
0.664 1264.7
0.665 1287.1
0.666 1286
0.667 1276.7
0.668 1281
0.669 1303.2
0.67 1285.3
0.671 1282.9
0.672 1265.1
0.673 1276
0.674 1274.2
0.675 1263.9
0.676 1278.6
0.677 1266.9
0.678 1273.7
0.679 1262.9
0.68 1265
0.681 1260.1
0.682 1266.2
0.683 1252.6
0.684 1244.5
0.685 1245.4
0.686 1217.4
0.687 882.85
0.688 1019.5
0.689 1026
0.69 1074.6
0.691 1120.1
0.692 1151.6
0.693 1144.6
0.694 1131.8
0.695 1153.8
0.696 1151.3
0.697 1215.1
0.698 1196.1
0.699 1172.1
0.7 1163.6
0.701 1148.9
0.702 1150
0.703 1156.7
0.704 1186.4
0.705 1198.9
0.706 1192.5
0.707 1187.5
0.708 1183.9
0.709 1188
0.71 1195.4
0.711 1193.4
0.712 1185.6
0.713 1171.9
0.714 1182.3
0.715 1142.8
0.716 1154.8
0.717 1008.1
0.718 938.73
0.719 842.74
0.72 899.4
0.721 989.67
0.722 1128.1
0.723 1042.3
0.724 963.05
0.725 947.41
0.726 986.38
0.727 989.88
0.728 949.68
0.729 955.03
0.73 1029.4
0.731 977.02
0.732 1052
0.733 1090.1
0.734 1126.1
0.735 1110.1
0.736 1099.4
0.737 1097.8
0.738 1118.4
0.739 1085.5
0.74 1111.9
0.741 1107.8
0.742 1108.4
0.743 1131.6
0.744 1140.8
0.745 1140.4
0.746 1138.1
0.747 1138.9
0.748 1132.3
0.749 1128.6
0.75 1127.3
0.751 1122.4
0.752 1126.5
0.753 1121
0.754 1135.3
0.755 1132.1
0.756 1118.5
0.757 1117.6
0.758 1124.6
0.759 1093.2
0.76 247.16
0.761 143.28
0.762 634.91
0.763 352.17
0.764 498.85
0.765 633.77
0.766 750.8
0.767 895.74
0.768 1022.2
0.769 1034.7
0.77 1064.6
0.771 1071.6
0.772 1080.2
0.773 1079.7
0.774 1080
0.775 1080.1
0.776 1082.7
0.777 1076.4
0.778 1075.4
0.779 1080.3
0.78 1068.7
0.781 1066.2
0.782 1071.4
0.783 1067.2
0.784 1060.2
0.785 1064.9
0.786 1065.6
0.787 1053
0.788 1039.9
0.789 1035.9
0.79 1004.5
0.791 1017.9
0.792 1008.4
0.793 1001.5
0.794 1010.1
0.795 1006.6
0.796 989.85
0.797 1005.7
0.798 1024.5
0.799 1004.8
0.8 988.59
0.801 999.78
0.802 1001.1
0.803 982.88
0.804 994.52
0.805 972.7
0.806 1012.2
0.807 1001.8
0.808 998.44
0.809 973.53
0.81 974.88
0.811 972.73
0.812 948.82
0.813 932.36
0.814 836.81
0.815 829.27
0.816 771.71
0.817 789.84
0.818 762.99
0.819 838.44
0.82 798.99
0.821 922.92
0.822 880.81
0.823 625.76
0.824 866.19
0.825 897.52
0.826 865.3
0.827 911.78
0.828 788.7
0.829 861.35
0.83 849.3
0.831 856.66
0.832 829.61
0.833 886.22
0.834 866.08
0.835 929.17
0.836 901.35
0.837 934.93
0.838 925.85
0.839 927.83
0.84 941.24
0.841 936.26
0.842 924.11
0.843 931.71
0.844 914.34
0.845 942.26
0.846 944.47
0.847 919.47
0.848 920.1
0.849 914.47
0.85 829
0.851 904.54
0.852 899.42
0.853 895.4
0.854 790
0.855 847.46
0.856 903.43
0.857 920.59
0.858 920.94
0.859 920.81
0.86 917.64
0.861 916.48
0.862 923.67
0.863 929.34
0.864 909.56
0.865 894.87
0.866 788.82
0.867 850.66
0.868 891.4
0.869 882.52
0.87 899.33
0.871 886.71
0.872 898.87
0.873 889.99
0.874 874.51
0.875 862.04
0.876 886.25
0.877 889.48
0.878 886.07
0.879 871.44
0.88 874.34
0.881 845.63
0.882 867.87
0.883 864.94
0.884 868.59
0.885 879.13
0.886 845.15
0.887 847.99
0.888 858.99
0.889 870.41
0.89 860.78
0.891 862.55
0.892 846.88
0.893 814.12
0.894 794.13
0.895 759.56
0.896 712.65
0.897 623.1
0.898 671.37
0.899 514.61
0.9 694.29
0.901 561.62
0.902 625
0.903 644.83
0.904 788.62
0.905 763.37
0.906 725.02
0.907 598.33
0.908 610.91
0.909 659.12
0.91 585.53
0.911 625.8
0.912 645.08
0.913 589.06
0.914 587.4
0.915 635.5
0.916 540.99
0.917 683.5
0.918 556.12
0.919 691.61
0.92 696.57
0.921 730.04
0.922 655.84
0.923 696.98
0.924 675.71
0.925 666.21
0.926 658.75
0.927 736.84
0.928 553.63
0.929 517.92
0.93 406.79
0.931 385.4
0.932 283.86
0.933 234.59
0.934 136.04
0.935 236.9
0.936 152.67
0.937 154.53
0.938 189.62
0.939 375.91
0.94 444.11
0.941 350.71
0.942 381.92
0.943 262.89
0.944 269.87
0.945 347.29
0.946 184.09
0.947 350.1
0.948 259.11
0.949 465.14
0.95 139.44
0.951 455.63
0.952 254.18
0.953 324.42
0.954 399.88
0.955 322.04
0.956 309.96
0.957 255.91
0.958 434.53
0.959 352.94
0.96 396.85
0.961 434.81
0.962 416.64
0.963 475.85
0.964 432.42
0.965 474.69
0.966 473.77
0.967 473.53
0.968 613.01
0.969 644.8
0.97 596.89
0.971 670.59
0.972 646.29
0.973 570.81
0.974 541.7
0.975 555.36
0.976 538.72
0.977 600.84
0.978 579.03
0.979 600.46
0.98 569.41
0.981 670.58
0.982 651.02
0.983 629.15
0.984 692.9
0.985 647.34
0.986 705.53
0.987 694.89
0.988 690.59
0.989 703.91
0.99 688.43
0.991 708.33
0.992 705.97
0.993 693.25
0.994 708.91
0.995 706.73
0.996 704.09
0.997 695.55
0.998 694.81
0.999 694.55
1 691.59
1.001 700.13
1.002 684.98
1.003 690.86
1.004 680.56
1.005 641.4
1.006 670.47
1.007 684.63
1.008 684.07
1.009 677.42
1.01 676.95
1.011 680.34
1.012 676.67
1.013 675.56
1.014 678.48
1.015 666.76
1.016 669.76
1.017 662.37
1.018 672.63
1.019 648.8
1.02 658.39
1.021 661.07
1.022 649.8
1.023 654.9
1.024 650.77
1.025 657.27
1.026 656.25
1.027 653.18
1.028 653.98
1.029 646.87
1.03 650.92
1.031 647.99
1.032 648.52
1.033 637.51
1.034 641.36
1.035 643.48
1.036 643.23
1.037 636.64
1.038 633.61
1.039 638.02
1.04 633.66
1.041 633.79
1.042 634.06
1.043 627.73
1.044 630.67
1.045 627.12
1.046 610.78
1.047 620.08
1.048 625.59
1.049 622.06
1.05 618.02
1.051 618.62
1.052 614.87
1.053 613.02
1.054 610.48
1.055 612.42
1.056 610.55
1.057 609.1
1.058 602.86
1.059 584.53
1.06 600.73
1.061 586.94
1.062 597.82
1.063 588.15
1.064 597.22
1.065 594.61
1.066 583.3
1.067 586.37
1.068 585.61
1.069 554.28
1.07 571.78
1.071 583.04
1.072 581.94
1.073 570.86
1.074 587.8
1.075 560.54
1.076 581.41
1.077 571.75
1.078 570.76
1.079 572.1
1.08 565.19
1.081 549.73
1.082 557.73
1.083 566.03
1.084 547.75
1.085 561.63
1.086 524.96
1.087 536.85
1.088 561.59
1.089 548.56
1.09 526.56
1.091 557.22
1.092 550.48
1.093 484.17
1.094 511.2
1.095 493.63
1.096 477.31
1.097 548.05
1.098 477.09
1.099 481.61
1.1 461.13
1.101 471.69
1.102 445.13
1.103 442.91
1.104 444.12
1.105 480.65
1.106 378.4
1.107 458.66
1.108 395.17
1.109 392.49
1.11 454.96
1.111 315.72
1.112 393.3
1.113 255.99
1.114 285.76
1.115 238.33
1.116 192.23
1.117 76.164
1.118 207.63
1.119 108.21
1.12 135.62
1.121 177.53
1.122 78.159
1.123 122.55
1.124 103.97
1.125 137.94
1.126 49.394
1.127 150.32
1.128 94.946
1.129 101.33
1.13 67.568
1.131 282.01
1.132 223.59
1.133 146.61
1.134 39.988
1.135 14.819
1.136 123.2
1.137 274.72
1.138 194.28
1.139 284.84
1.14 244.47
1.141 184.86
1.142 214.81
1.143 297.58
1.144 108.43
1.145 139.76
1.146 150.85
1.147 56.715
1.148 258.98
1.149 208.94
1.15 116.48
1.151 194.53
1.152 236.66
1.153 227.62
1.154 136.43
1.155 299.03
1.156 268.37
1.157 300.4
1.158 297.7
1.159 321.63
1.16 273.71
1.161 331.67
1.162 334.12
1.163 446.44
1.164 383.32
1.165 370.8
1.166 357.81
1.167 391.05
1.168 400.18
1.169 403.48
1.17 437.31
1.171 427.5
1.172 433.7
1.173 435.22
1.174 321.93
1.175 431.42
1.176 454.47
1.177 450.4
1.178 343.91
1.179 461.14
1.18 420.52
1.181 434.23
1.182 309.03
1.183 418.53
1.184 400.83
1.185 389.08
1.186 455.18
1.187 434.94
1.188 320.39
1.189 396.85
1.19 441.24
1.191 426.38
1.192 451.71
1.193 433.7
1.194 447.51
1.195 426.71
1.196 411.88
1.197 455.27
1.198 414.26
1.199 348.69
1.2 427.89
1.201 417.35
1.202 417.43
1.203 414.41
1.204 346.45
1.205 417.14
1.206 458.72
1.207 410.44
1.208 413.79
1.209 395.48
1.21 432.67
1.211 403.19
1.212 405.72
1.213 448.04
1.214 414.43
1.215 408.51
1.216 445.09
1.217 434.57
1.218 438.42
1.219 426.39
1.22 437.24
1.221 444.13
1.222 430.96
1.223 424
1.224 427.88
1.225 441.41
1.226 446.96
1.227 413.6
1.228 445.44
1.229 446.08
1.23 439.28
1.231 450.67
1.232 445.25
1.233 433.59
1.234 448.93
1.235 444.09
1.236 447.95
1.237 442.59
1.238 446.94
1.239 441.94
1.24 440.11
1.241 441.3
1.242 441.79
1.243 437.12
1.244 434.99
1.245 436.22
1.246 439.02
1.247 437.15
1.248 438.28
1.249 439.3
1.25 436.84
1.251 432.6
1.252 431.06
1.253 428.03
1.254 424.16
1.255 430.88
1.256 420.96
1.257 416.3
1.258 425.49
1.259 408.68
1.26 412.35
1.261 393.71
1.262 378.67
1.263 383
1.264 355.68
1.265 378.71
1.266 368.81
1.267 371.59
1.268 354.75
1.269 236.56
1.27 370.87
1.271 390.62
1.272 391.14
1.273 388.74
1.274 388.64
1.275 394.55
1.276 398.95
1.277 401.91
1.278 409.16
1.279 406.26
1.28 403.87
1.281 395.54
1.282 356.95
1.283 389.78
1.284 402.68
1.285 405.77
1.286 408.78
1.287 404.05
1.288 401.92
1.289 391.94
1.29 395.22
1.291 400.04
1.292 379.46
1.293 395.06
1.294 387.09
1.295 388.01
1.296 373.22
1.297 355.83
1.298 375.36
1.299 391.27
1.3 338.55
1.301 347.28
1.302 375.39
1.303 331.97
1.304 288.49
1.305 367.83
1.306 368.53
1.307 293.62
1.308 332.77
1.309 368.22
1.31 289.08
1.311 320.12
1.312 319.86
1.313 300.89
1.314 276.9
1.315 274.47
1.316 311.13
1.317 299.69
1.318 319.84
1.319 258.03
1.32 248.64
1.321 286.84
1.322 290.23
1.323 223.86
1.324 252.31
1.325 309.43
1.326 269.56
1.327 255.93
1.328 225.55
1.329 170.97
1.33 220.52
1.331 139.51
1.332 140.46
1.333 195.45
1.334 163.02
1.335 222.44
1.336 176.7
1.337 158.52
1.338 171.51
1.339 170.33
1.34 162.16
1.341 164.19
1.342 171.49
1.343 122.59
1.344 73.018
1.345 105.21
1.346 56.189
1.347 58.058
1.348 4.5862
1.349 15.617
1.35 15.488
1.351 4.4759
1.352 1.4661
1.353 0.092918
1.354 0.28051
1.355 0.0034847
1.356 0.046489
1.357 0.069429
1.358 0.0040575
1.359 0.0007104
1.36 0.0020706
1.361 4.6566E-06
1.362 1.7489E-08
1.363 0.003054
1.364 0.001315
1.365 8.7833E-09
1.366 0.012379
1.367 0.0048161
1.368 1.4311E-10
1.369 0.00050008
1.37 0.00028266
1.371 0.000019101
1.372 0.0026623
1.373 0.042991
1.374 0.1735
1.375 0.31309
1.376 0.24935
1.377 0.11883
1.378 1.0741
1.379 0.050533
1.38 0.079042
1.381 0.0022978
1.382 0.0024874
1.383 0.000042653
1.384 0.00059782
1.385 0.0020255
1.386 0.0024441
1.387 0.19288
1.388 0.0039037
1.389 0.56338
1.39 0.47836
1.391 0.33345
1.392 0.023065
1.393 0.11238
1.394 0.073268
1.395 0.00065137
1.396 6.1338E-06
1.397 0.047605
1.398 1.2329
1.399 0.78835
1.4 3.1513E-06
1.401 0.000010219
1.402 1.7817
1.403 2.3108
1.404 0.71755
1.405 0.00035395
1.406 1.9861
1.407 0.16957
1.408 1.6023
1.409 0.60159
1.41 0.45332
1.411 2.0544
1.412 2.565
1.413 22.69
1.414 0.35359
1.415 0.17854
1.416 34.561
1.417 11.431
1.418 13.182
1.419 2.0851
1.42 8.0437
1.421 8.9117
1.422 45.023
1.423 8.9676
1.424 16.511
1.425 25.142
1.426 27.032
1.427 48.18
1.428 4.436
1.429 36.985
1.43 59.912
1.431 48.792
1.432 2.4524
1.433 34.87
1.434 20.403
1.435 20.847
1.436 37.326
1.437 29.085
1.438 12.913
1.439 49.672
1.44 38.547
1.441 30.959
1.442 35.356
1.443 43.868
1.444 60.143
1.445 48.434
1.446 22.492
1.447 35.265
1.448 112.54
1.449 99.374
1.45 26.699
1.451 10.98
1.452 60.718
1.453 79.803
1.454 133.84
1.455 64.409
1.456 86.158
1.457 113.86
1.458 132.73
1.459 158.6
1.46 83.161
1.461 87.886
1.462 127.08
1.463 42.106
1.464 147.7
1.465 90.911
1.466 63.498
1.467 35.128
1.468 74.928
1.469 92.344
1.47 48.397
1.471 17.394
1.472 45.566
1.473 68.368
1.474 94.765
1.475 179.54
1.476 66.987
1.477 67.916
1.478 61.825
1.479 116.8
1.48 59.063
1.481 112.21
1.482 56.967
1.483 144.54
1.484 133.75
1.485 121.68
1.486 120.08
1.487 59.042
1.488 91.654
1.489 184.43
1.49 169.93
1.491 192.22
1.492 159.86
1.493 176.51
1.494 197.94
1.495 177.45
1.496 163.85
1.497 221.98
1.498 184.37
1.499 211.41
1.5 243.39
1.501 257.82
1.502 226.88
1.503 179.72
1.504 155.86
1.505 178.85
1.506 250.26
1.507 247.79
1.508 236.06
1.509 181.69
1.51 262.69
1.511 257.1
1.512 253.15
1.513 235.44
1.514 219.3
1.515 258.04
1.516 249.43
1.517 242.14
1.518 244.89
1.519 237.39
1.52 256.88
1.521 267.07
1.522 256.17
1.523 271.92
1.524 267.43
1.525 251.4
1.526 259.77
1.527 254.68
1.528 271.22
1.529 264.6
1.53 247.89
1.531 262
1.532 270.39
1.533 269.18
1.534 261.22
1.535 259.24
1.536 266.79
1.537 265.58
1.538 264.27
1.539 265.19
1.54 257.37
1.541 261.41
1.542 261.65
1.543 264.39
1.544 264.43
1.545 269.22
1.546 267.05
1.547 265.37
1.548 259.2
1.549 265.68
1.55 262.26
1.551 262.93
1.552 264.15
1.553 263.66
1.554 257.27
1.555 260.05
1.556 255.69
1.557 263.01
1.558 260.93
1.559 260.54
1.56 258.21
1.561 262.42
1.562 260.03
1.563 259.17
1.564 255.25
1.565 259.75
1.566 255.06
1.567 255.66
1.568 249.97
1.569 247.36
1.57 234.97
1.571 228.5
1.572 231.08
1.573 227.5
1.574 234.64
1.575 232.94
1.576 239.8
1.577 209.94
1.578 228.54
1.579 230.05
1.58 237.72
1.581 241.65
1.582 235.08
1.583 240.51
1.584 241.94
1.585 251.35
1.586 248.38
1.587 245.79
1.588 243.88
1.589 225.67
1.59 234.86
1.591 235.03
1.592 245.02
1.593 250.92
1.594 248.9
1.595 250.83
1.596 237.51
1.597 239.85
1.598 246.93
1.599 235.11
1.6 231.33
1.601 216.91
1.602 217.8
1.603 217.65
1.604 221.97
1.605 230.1
1.606 234.53
1.607 226.37
1.608 223.43
1.609 220.88
1.61 211.46
1.611 220.39
1.612 224.22
1.613 230.47
1.614 231.62
1.615 234.2
1.616 223.95
1.617 227.98
1.618 236.6
1.619 234.15
1.62 227.83
1.621 227.65
1.622 230.81
1.623 235.59
1.624 235.82
1.625 231.09
1.626 232.94
1.627 233.98
1.628 234.46
1.629 234.56
1.63 229.84
1.631 231.36
1.632 231.51
1.633 226.14
1.634 226.28
1.635 227.12
1.636 228.79
1.637 220.64
1.638 213.93
1.639 214.1
1.64 209.13
1.641 213.48
1.642 214.67
1.643 209.39
1.644 217.33
1.645 212.16
1.646 211.47
1.647 221.35
1.648 210.57
1.649 212.61
1.65 219.02
1.651 202.81
1.652 217.54
1.653 216.61
1.654 209.91
1.655 216.19
1.656 214.94
1.657 216.13
1.658 218.7
1.659 215.14
1.66 217.21
1.661 217.74
1.662 213.13
1.663 216.3
1.664 214.98
1.665 206.07
1.666 174.11
1.667 205.02
1.668 208.81
1.669 209.39
1.67 215.73
1.671 212.94
1.672 205.82
1.673 210.52
1.674 210.02
1.675 207.93
1.676 205.84
1.677 206.68
1.678 203.65
1.679 207.41
1.68 200.17
1.681 189.36
1.682 198.3
1.683 203.57
1.684 192.83
1.685 207.63
1.686 204.76
1.687 199.51
1.688 204.65
1.689 201.78
1.69 199.91
1.691 188.08
1.692 201.74
1.693 205.87
1.694 199.5
1.695 204.27
1.696 203.83
1.697 176.49
1.698 202.07
1.699 200.24
1.7 194.64
1.702 198.74
1.705 192.75
1.71 183.16
1.715 184.9
1.72 182.31
1.725 173.67
1.73 169.79
1.735 157.58
1.74 164.05
1.745 151.05
1.75 161.62
1.755 149.31
1.76 156.08
1.765 129.67
1.77 138.31
1.775 112.13
1.78 98.143
1.785 75.201
1.79 86.831
1.795 45.864
1.8 31.112
1.805 14.485
1.81 9.4762
1.815 3.2093
1.82 0.96578
1.825 1.2463
1.83 0.0050896
1.835 0.0062784
1.84 0.000061337
1.845 0.0061298
1.85 0.0029348
1.855 0.00027795
1.86 0.01092
1.865 0.016644
1.87 2.6148E-07
1.875 4.4296E-07
1.88 0.076123
1.885 0.043129
1.89 0.21956
1.895 0.12743
1.9 0.00084916
1.905 0.00055798
1.91 0.022726
1.915 0.019673
1.92 0.44451
1.925 0.92326
1.93 0.54474
1.935 3.5428
1.94 3.2357
1.945 10.707
1.95 16.482
1.955 9.886
1.96 21.569
1.965 28.114
1.97 48.055
1.975 66.73
1.98 74.234
1.985 81.625
1.99 84.124
1.995 79.787
2 37.491
2.005 14.747
2.01 39.071
2.015 26.208
2.02 44.239
2.025 72.779
2.03 83.46
2.035 94.808
2.04 88.344
2.045 89.636
2.05 66.892
2.055 54.09
2.06 68.157
2.065 60.962
2.07 64.715
2.075 76.305
2.08 85.528
2.085 83.847
2.09 87.779
2.095 88.421
2.1 84.869
2.105 91.771
2.11 88.32
2.115 90.308
2.12 86.281
2.125 87.303
2.13 88.422
2.135 88.679
2.14 89.39
2.145 88.132
2.15 83.369
2.155 83.566
2.16 82.912
2.165 75.175
2.17 80.776
2.175 79.257
2.18 80.597
2.185 73.458
2.19 77.905
2.195 77.833
2.2 70.175
2.205 72.947
2.21 78.174
2.215 75.189
2.22 76.631
2.225 74.4
2.23 74.727
2.235 73.29
2.24 72.14
2.245 69.911
2.25 71.034
2.255 66.865
2.26 66.143
2.265 67.355
2.27 64.138
2.275 63.309
2.28 65.551
2.285 62.389
2.29 62.534
2.295 60.603
2.3 58.193
2.305 58.544
2.31 63.189
2.315 57.528
2.32 51.489
2.325 55.626
2.33 56.231
2.335 57.362
2.34 45.366
2.345 50.869
2.35 41.115
2.355 46.988
2.36 49.724
2.365 48.909
2.37 30.514
2.375 43.704
2.38 42.128
2.385 30.525
2.39 36.748
2.395 40.199
2.4 43.726
2.405 33.286
2.41 33.504
2.415 27.058
2.42 26.358
2.425 32.802
2.43 44.725
2.435 14.765
2.44 42.926
2.445 20.657
2.45 13.523
2.455 24.695
2.46 33.157
2.465 24.009
2.47 16.635
2.475 16.368
2.48 7.9996
2.485 5.584
2.49 3.4957
2.495 2.8647
2.5 7.0328
2.505 1.5124
2.51 2.2063
2.515 0.51644
2.52 0.36879
2.525 0.041194
2.53 0.00063279
2.535 0.00017415
2.54 0.00037521
2.545 5.3469E-08
2.55 2.8066E-10
2.555 1.0377E-06
2.56 3.0842E-08
2.565 1.5846E-11
2.57 1.5151E-15
2.575 1.0708E-24
2.58 3.7933E-19
2.585 1.7064E-31
2.59 5.4369E-28
2.595 2.2666E-30
2.6 4.4556E-25
2.605 5.7592E-32
2.61 5.897E-31
2.615 1.1102E-34
2.62 5.6056E-26
2.625 3.8378E-25
2.63 0
2.635 3.8719E-13
2.64 1.1657E-13
2.645 8.9292E-16
2.65 1.4185E-16
2.655 1.3036E-24
2.66 2.588E-22
2.665 1.1041E-34
2.67 0
2.675 0
2.68 0
2.685 0
2.69 1.0178E-26
2.695 7.1014E-30
2.7 0
2.705 0
2.71 1.1235E-32
2.715 3.8549E-23
2.72 0
2.725 7.3094E-19
2.73 6.0929E-16
2.735 5.5122E-18
2.74 2.3435E-24
2.745 1.3224E-20
2.75 1.6758E-25
2.755 0
2.76 0
2.765 2.7001E-24
2.77 8.4528E-21
2.775 4.0345E-35
2.78 4.8532E-31
2.785 3.9255E-24
2.79 1.2295E-13
2.795 3.6591E-13
2.8 1.6665E-09
2.805 6.8228E-11
2.81 4.0695E-07
2.815 2.9018E-07
2.82 2.0789E-08
2.825 0.00017814
2.83 0.0039475
2.835 2.1533E-07
2.84 0.00019849
2.845 0.041074
2.85 0.0011708
2.855 0.00045425
2.86 0.025672
2.865 0.16974
2.87 0.0063922
2.875 0.39663
2.88 0.25037
2.885 0.45906
2.89 0.1886
2.895 2.6982
2.9 0.82183
2.905 0.11237
2.91 2.7566
2.915 1.2742
2.92 2.9316
2.925 1.0973
2.93 5.9606
2.935 6.5725
2.94 1.6479
2.945 1.4673
2.95 5.2935
2.955 2.3655
2.96 4.6549
2.965 7.5313
2.97 0.35676
2.975 0.86499
2.98 1.3548
2.985 7.0495
2.99 10.407
2.995 4.3286
3 7.9442
3.005 2.9261
3.01 6.932
3.015 5.6232
3.02 0.64143
3.025 7.5948
3.03 6.1491
3.035 2.529
3.04 2.0487
3.045 4.2599
3.05 1.0446
3.055 0.29295
3.06 6.3761
3.065 2.9458
3.07 1.7699
3.075 6.0928
3.08 3.6646
3.085 1.7876
3.09 2.408
3.095 0.66266
3.1 4.4513
3.105 0.93203
3.11 0.85524
3.115 2.2932
3.12 9.9294
3.125 3.0625
3.13 5.8246
3.135 11.571
3.14 3.3603
3.145 3.2869
3.15 6.7457
3.155 5.6965
3.16 9.3294
3.165 14.163
3.17 12.645
3.175 9.3252
3.18 10.73
3.185 8.1644
3.19 4.2817
3.195 2.7197
3.2 0.4428
3.205 0.3128
3.21 0.13768
3.215 0.50237
3.22 1.6245
3.225 0.20066
3.23 0.34404
3.235 7.3625
3.24 3.7816
3.245 0.74096
3.25 2.6308
3.255 10.029
3.26 1.236
3.265 2.4686
3.27 1.2292
3.275 5.9758
3.28 2.889
3.285 11.223
3.29 8.831
3.295 1.2337
3.3 1.7944
3.305 3.9746
3.31 3.9565
3.315 0.016269
3.32 0.060496
3.325 3.5486
3.33 4.7014
3.335 9.147
3.34 3.4903
3.345 3.5722
3.35 8.0998
3.355 3.6642
3.36 5.2892
3.365 7.2591
3.37 3.977
3.375 8.5388
3.38 5.1624
3.385 7.5649
3.39 9.9552
3.395 9.6446
3.4 12.638
3.405 4.5061
3.41 7.1547
3.415 7.3543
3.42 13.305
3.425 10.112
3.43 8.781
3.435 11.673
3.44 8.1181
3.445 11.434
3.45 11.267
3.455 8.3938
3.46 12.657
3.465 9.9163
3.47 12.386
3.475 11.051
3.48 11.335
3.485 12.212
3.49 10.52
3.495 12.383
3.5 12.032
3.505 11.923
3.51 12.077
3.515 11.598
3.52 12.226
3.525 11.523
3.53 11.217
3.535 9.5305
3.54 9.1011
3.545 9.6154
3.55 10.616
3.555 9.1245
3.56 10.872
3.565 10.928
3.57 8.3951
3.575 8.7028
3.58 10.255
3.585 9.2282
3.59 9.5145
3.595 9.7329
3.6 10.328
3.605 10.425
3.61 9.5385
3.615 9.5318
3.62 11.686
3.625 10.302
3.63 10.016
3.635 10.362
3.64 11.549
3.645 10.663
3.65 10.183
3.655 11.042
3.66 10.978
3.665 10.313
3.67 7.9464
3.675 4.8569
3.68 8.3789
3.685 9.4906
3.69 9.7458
3.695 10.188
3.7 10.937
3.705 10.827
3.71 9.413
3.715 9.2731
3.72 10.429
3.725 10.751
3.73 9.3169
3.735 8.626
3.74 8.8923
3.745 10.38
3.75 9.3341
3.755 9.0336
3.76 8.9041
3.765 8.5891
3.77 9.1649
3.775 9.0918
3.78 9.6158
3.785 8.8498
3.79 7.7891
3.795 8.9056
3.8 9.8988
3.805 9.3414
3.81 8.2771
3.815 7.7867
3.82 9.6908
3.825 9.5402
3.83 9.6268
3.835 7.719
3.84 9.0066
3.845 8.8097
3.85 8.8569
3.855 8.5365
3.86 8.0197
3.865 8.1248
3.87 7.3839
3.875 6.7832
3.88 6.5543
3.885 6.7926
3.89 6.9028
3.895 7.4983
3.9 7.9487
3.905 7.95
3.91 7.156
3.915 7.007
3.92 6.9665
3.925 6.8714
3.93 7.0699
3.935 7.3743
3.94 7.4228
3.945 7.5613
3.95 7.6475
3.955 7.7399
3.96 7.7679
3.965 7.8253
3.97 7.6997 
3.975 7.528 
3.98 7.4049 
3.985 7.4503 
3.99 7.3894 
3.995 7.2263 
4 7.1199 

