Description: ASTM E308-90 Table 5.1 - Weights for Illuminant A, 1931 Observer, 10 nm interval.  Z column
Type: Source
Wavelength Units: nanometers 
     360   0.000
     370   0.001
     380   0.005
     390   0.021
     400   0.083
     410   0.333
     420   1.309
     430   3.144
     440   4.635
     450   5.461
     460   5.838
     470   5.128
     480   3.639
     490   2.332
     500   1.513
     510   0.962
     520   0.533
     530   0.305
     540   0.162
     550   0.075
     560   0.036
     570   0.021
     580   0.017
     590   0.013
     600   0.010
     610   0.005
     620   0.002
     630   0.001
     640   0.000
     650   0.000
     660   0.000
     670   0.000
     680   0.000
     690   0.000
     700   0.000
     710   0.000
     720   0.000
     730   0.000
     740   0.000
     750   0.000
     760   0.000
     770   0.000
     780   0.000
