Description: CIE 1931 2 Degree Observer at 5 nm intervals from 380 to 780 nm, from ASTM E308 Table 1, Z Component
Type: Detector
Wavelength Units: Microns

0.38 0.0065 
0.385 0.0105 
0.39 0.0201 
0.395 0.0362 
0.4 0.0679 
0.405 0.1102 
0.41 0.2074 
0.415 0.3713 
0.42 0.6456 
0.425 1.0391 
0.43 1.3856 
0.435 1.623 
0.44 1.7471 
0.445 1.7826 
0.45 1.7721 
0.455 1.7441 
0.46 1.6692 
0.465 1.5281 
0.47 1.2876 
0.475 1.0419 
0.48 0.813 
0.485 0.6162 
0.49 0.4652 
0.495 0.3533 
0.5 0.272 
0.505 0.2123 
0.51 0.1582 
0.515 0.1117 
0.52 0.0782 
0.525 0.0573 
0.53 0.0422 
0.535 0.0298 
0.54 0.0203 
0.545 0.0134 
0.55 0.0087 
0.555 0.0057 
0.56 0.0039 
0.565 0.0027 
0.57 0.0021 
0.575 0.0018 
0.58 0.0017 
0.585 0.0014 
0.59 0.0011 
0.595 0.001 
0.6 0.0008 
0.605 0.0006 
0.61 0.0003 
0.615 0.0002 
0.62 0.0002 
0.625 0.0001 
0.63 0 
0.635 0 
0.64 0 
0.645 0 
0.65 0 
0.655 0 
0.66 0 
0.665 0 
0.67 0 
0.675 0 
0.68 0 
0.685 0 
0.69 0 
0.695 0 
0.7 0 
0.705 0 
0.71 0 
0.715 0 
0.72 0 
0.725 0 
0.73 0 
0.735 0 
0.74 0 
0.745 0 
0.75 0 
0.755 0 
0.76 0 
0.765 0 
0.77 0 
0.775 0 
0.78 0 
