Description: CIE 1931 2 Degree Observer at 5 nm intervals from 380 to 780 nm, from ASTM E308 Table 1, X Component
Type: Detector
Wavelength Units: Microns

0.38 0.0014 
0.385 0.0022 
0.39 0.0042 
0.395 0.0076 
0.4 0.0143 
0.405 0.0232 
0.41 0.0435 
0.415 0.0776 
0.42 0.1344 
0.425 0.2148 
0.43 0.2839 
0.435 0.3285 
0.44 0.3483 
0.445 0.3481 
0.45 0.3362 
0.455 0.3187 
0.46 0.2908 
0.465 0.2511 
0.47 0.1954 
0.475 0.1421 
0.48 0.0956 
0.485 0.058 
0.49 0.032 
0.495 0.0147 
0.5 0.0049 
0.505 0.0024 
0.51 0.0093 
0.515 0.0291 
0.52 0.0633 
0.525 0.1096 
0.53 0.1655 
0.535 0.2257 
0.54 0.2904 
0.545 0.3597 
0.55 0.4334 
0.555 0.5121 
0.56 0.5945 
0.565 0.6784 
0.57 0.7621 
0.575 0.8425 
0.58 0.9163 
0.585 0.9786 
0.59 1.0263 
0.595 1.0567 
0.6 1.0622 
0.605 1.0456 
0.61 1.0026 
0.615 0.9384 
0.62 0.8544 
0.625 0.7514 
0.63 0.6424 
0.635 0.5419 
0.64 0.4479 
0.645 0.3608 
0.65 0.2835 
0.655 0.2187 
0.66 0.1649 
0.665 0.1212 
0.67 0.0874 
0.675 0.0636 
0.68 0.0468 
0.685 0.0329 
0.69 0.0227 
0.695 0.0158 
0.7 0.0114 
0.705 0.0081 
0.71 0.0058 
0.715 0.0041 
0.72 0.0029 
0.725 0.002 
0.73 0.0014 
0.735 0.001 
0.74 0.0007 
0.745 0.0005 
0.75 0.0003 
0.755 0.0002 
0.76 0.0002 
0.765 0.0001 
0.77 0.0001 
0.775 0.0001 
0.78 0 
