Description: ASTM E308-90 Table 5.19 - Weights for Illuminant D65, 1964 Observer, 10 nm interval.  Z column
Type: Source
Wavelength Units: nanometers 
     360   0.000
     370   0.000
     380  -0.002
     390   0.033
     400   0.612
     410   3.110
     420   7.627
     430  12.095
     440  17.537
     450  19.888
     460  17.695
     470  13.000
     480   7.699
     490   3.938
     500   2.046
     510   1.049
     520   0.544
     530   0.278
     540   0.122
     550   0.035
     560   0.001
     570   0.000
     580   0.000
     590   0.000
     600   0.000
     610   0.000
     620   0.000
     630   0.000
     640   0.000
     650   0.000
     660   0.000
     670   0.000
     680   0.000
     690   0.000
     700   0.000
     710   0.000
     720   0.000
     730   0.000
     740   0.000
     750   0.000
     760   0.000
     770   0.000
     780   0.000
