Description: ASTM G197-08 (Table 3), Direct Irradiance on 20 degree Tilt at Air Mass 1.5 - Standard Curve in Wm-2nm-1. Direct spectral irradiance at lam, centered on lam. Converted to W m-2 um-1. Total irradiance is 791.07 W/m2.
Type: Source
Wavelength Units: micron

0.28 2.1999E-23 
0.2805 9.4706E-22 
0.281 5.3147E-21 
0.2815 2.3845E-19 
0.282 2.4601E-18 
0.2825 1.1519E-17 
0.283 5.8722E-17 
0.2835 1.2688E-16 
0.284 4.3274E-15 
0.2845 1.8778E-14 
0.285 7.8161E-14 
0.2855 5.5957E-13
0.286 2.0417E-12
0.2865 1.6035E-11
0.287 6.3032E-11
0.2875 3.1819E-10
0.288 2.4386E-09
0.2885 7.8786E-09
0.289 3.0403E-08
0.2895 1.3359E-07
0.29 4.4733E-07
0.2905 1.1566E-06
0.291 3.3881E-06
0.2915 0.000012544
0.292 0.000035474
0.2925 0.000061244
0.293 0.00013709
0.2935 0.00040969
0.294 0.00082265
0.2945 0.0013891
0.295 0.0028059
0.2955 0.0069796
0.296 0.012826
0.2965 0.02029
0.297 0.028887
0.2975 0.059116
0.298 0.096869
0.2985 0.12424
0.299 0.17695
0.2995 0.32554
0.3 0.39736
0.3005 0.49821
0.301 0.80062
0.3015 1.1498
0.302 1.2691
0.3025 1.9087
0.303 3.2523
0.3035 4.1858
0.304 4.4413
0.3045 5.6355
0.305 7.7849
0.3055 8.8766
0.306 8.8464
0.3065 10.082
0.307 13.289
0.3075 16.97
0.308 18.092
0.3085 19.834
0.309 19.441
0.3095 20.64
0.31 24.263
0.3105 31.287
0.311 39.585
0.3115 40.253
0.312 44.391
0.3125 46.895
0.313 50.872
0.3135 51.465
0.314 56.934
0.3145 61.483
0.315 64.286
0.3155 56.566
0.316 58.536
0.3165 70.781
0.317 81.17
0.3175 87.014
0.318 83.617
0.3185 87.316
0.319 95.756
0.3195 93.33
0.32 98.434
0.3205 116.13
0.321 117.1
0.3215 111.89
0.322 106.51
0.3225 104.5
0.323 101.48
0.3235 116.94
0.324 129.68
0.3245 135.05
0.325 135.38
0.3255 156.63
0.326 182.24
0.3265 193.54
0.327 190.69
0.3275 185.9
0.328 172.71
0.3285 180.59
0.329 203.5
0.3295 225.93
0.33 228.8
0.3305 210.57
0.331 199.5
0.3315 206.49
0.332 214.12
0.3325 215.42
0.333 212
0.3335 203.29
0.334 208.16
0.3345 222.25
0.335 231.37
0.3355 226.28
0.336 208.11
0.3365 193.13
0.337 190.24
0.3375 204.81
0.338 221.31
0.3385 232.06
0.339 236.85
0.3395 243.42
0.34 259.26
0.3405 259.41
0.341 244.18
0.3415 243.5
0.342 254.6
0.3425 264.87
0.343 269.78
0.3435 255.71
0.344 221.67
0.3445 213.69
0.345 243.56
0.3455 260.24
0.346 254.75
0.3465 260.13
0.347 265.13
0.3475 256.69
0.348 256.3
0.3485 261.36
0.349 252.44
0.3495 259.94
0.35 287.88
0.3505 310.26
0.351 302.67
0.3515 292.05
0.352 285.82
0.3525 270.77
0.353 288.46
0.3535 318
0.354 337.01
0.3545 341.57
0.355 342.42
0.3555 331.39
0.356 311.7
0.3565 293.06
0.357 258.35
0.3575 262.05
0.358 244.44
0.3585 227.48
0.359 268.19
0.3595 323.88
0.36 343.38
0.3605 325.24
0.361 299.97
0.3615 294.45
0.362 309.37
0.3625 339.59
0.363 350.12
0.3635 341.28
0.364 354.22
0.3645 351.66
0.365 365.94
0.3655 403.59
0.366 433.34
0.3665 434.97
0.367 427.76
0.3675 420.52
0.368 396.7
0.3685 394.85
0.369 413.57
0.3695 445.2
0.37 452.29
0.3705 409.69
0.371 416.96
0.3715 434.12
0.372 407.15
0.3725 388.62
0.373 375.01
0.3735 338.68
0.374 338.41
0.3745 336.52
0.375 359.75
0.3755 398.52
0.376 413.44
0.3765 407.5
0.377 437.94
0.3775 489.4
0.378 528.15
0.3785 515.71
0.379 460.76
0.3795 413.82
0.38 435.69
0.3805 467.61
0.381 476.62
0.3815 430.31
0.382 367.46
0.3825 318.45
0.383 285.94
0.3835 277.27
0.384 321.34
0.3845 387.47
0.385 426
0.3855 407.72
0.386 394.01
0.3865 410.34
0.387 414.68
0.3875 409.33
0.388 406
0.3885 403.78
0.389 439.04
0.3895 487.37
0.39 512.08
0.3905 517.18
0.391 548.68
0.3915 557.3
0.392 513.85
0.3925 428.92
0.393 311.02
0.3935 247.68
0.394 322.22
0.3945 445.15
0.395 526.5
0.3955 561.6
0.396 494.51
0.3965 360.11
0.397 279.34
0.3975 413.13
0.398 560.26
0.3985 662.59
0.399 704.53
0.3995 727.08
0.4 735.93
0.401 768.38
0.402 800.79
0.403 772.98
0.404 787.35
0.405 769.84
0.406 752.59
0.407 740.92
0.408 775.5
0.409 830.1
0.41 709.11
0.411 795.55
0.412 847.42
0.413 814.7
0.414 807.56
0.415 837.68
0.416 864.51
0.417 844.93
0.418 809.88
0.419 844.62
0.42 775.5
0.421 882.54
0.422 872.24
0.423 846.24
0.424 843.2
0.425 870.66
0.426 847.48
0.427 820.17
0.428 829.61
0.429 769.49
0.43 614.91
0.431 559.2
0.432 931.83
0.433 868.49
0.434 803.64
0.435 882.95
0.436 969.88
0.437 991.35
0.438 871.34
0.439 839.66
0.44 963.98
0.441 952.22
0.442 1020.8
0.443 1036.8
0.444 1011.7
0.445 1051.6
0.446 944.18
0.447 1075
0.448 1089.4
0.449 1088.3
0.45 1129.7
0.451 1173.2
0.452 1124.6
0.453 1039.7
0.454 1116.5
0.455 1110
0.456 1147.9
0.457 1158.9
0.458 1135.6
0.459 1127.9
0.46 1122
0.461 1162.7
0.462 1174.8
0.463 1180
0.464 1145.2
0.465 1132.1
0.466 1157.1
0.467 1106.8
0.468 1156
0.469 1162.1
0.47 1118.4
0.471 1138.3
0.472 1198.5
0.473 1153.1
0.474 1167.2
0.475 1206.8
0.476 1166.8
0.477 1175
0.478 1214.2
0.479 1192
0.48 1213
0.481 1214
0.482 1219.5
0.483 1205.7
0.484 1183.8
0.485 1180.8
0.486 957.97
0.487 1073.6
0.488 1162.8
0.489 1096.2
0.49 1225.7
0.491 1178.9
0.492 1124.8
0.493 1203.9
0.494 1176
0.495 1249.5
0.496 1188.9
0.497 1210
0.498 1177.7
0.499 1178.5
0.5 1175.2
0.501 1140
0.502 1140.1
0.503 1193.3
0.504 1113
0.505 1193.4
0.506 1242.1
0.507 1189
0.508 1159.4
0.509 1215.5
0.51 1184.5
0.511 1207.1
0.512 1239.7
0.513 1165.3
0.514 1141.3
0.515 1174.8
0.516 1186.1
0.517 967
0.518 1106.4
0.519 1072.7
0.52 1171.7
0.521 1180.8
0.522 1207.8
0.523 1139
0.524 1225.5
0.525 1216.5
0.526 1183.1
0.527 1035.4
0.528 1185.7
0.529 1241.4
0.53 1193.6
0.531 1259.5
0.532 1237.2
0.533 1105.2
0.534 1184.3
0.535 1202.7
0.536 1254.6
0.537 1161.3
0.538 1219.9
0.539 1190.2
0.54 1149.7
0.541 1105.7
0.542 1204
0.543 1184.6
0.544 1226.5
0.545 1199
0.546 1188.3
0.547 1204.2
0.548 1170.4
0.549 1207.3
0.55 1198.2
0.551 1197.4
0.552 1222.4
0.553 1188.1
0.554 1211.8
0.555 1218.9
0.556 1198.5
0.557 1169.6
0.558 1195.3
0.559 1131.3
0.56 1151.8
0.561 1219.2
0.562 1161.2
0.563 1205.6
0.564 1182.4
0.565 1190.3
0.566 1126
0.567 1200.6
0.568 1190.2
0.569 1161.5
0.57 1162.6
0.571 1124.9
0.572 1188.5
0.573 1193.8
0.574 1187.9
0.575 1161.3
0.576 1152
0.577 1181.3
0.578 1145.1
0.579 1161.8
0.58 1181.6
0.581 1187.2
0.582 1205.6
0.583 1218.2
0.584 1215.9
0.585 1206.4
0.586 1177.6
0.587 1203.9
0.588 1177.1
0.589 1017.2
0.59 1081.7
0.591 1156.7
0.592 1132.9
0.593 1149.3
0.594 1144.3
0.595 1130.3
0.596 1164.6
0.597 1168.4
0.598 1154.3
0.599 1154.5
0.6 1166.2
0.601 1152.7
0.602 1135.5
0.603 1159.8
0.604 1180.4
0.605 1178.5
0.606 1172.9
0.607 1180
0.608 1176.3
0.609 1167.6
0.61 1162.7
0.611 1156.9
0.612 1174.4
0.613 1158
0.614 1122.9
0.615 1164.3
0.616 1133.7
0.617 1119.4
0.618 1162
0.619 1167.6
0.62 1168.2
0.621 1173.5
0.622 1131.6
0.623 1123.8
0.624 1120.1
0.625 1112.8
0.626 1111.7
0.627 1144
0.628 1083
0.629 1120.8
0.63 1105.9
0.631 1124.4
0.632 1082.9
0.633 1151.8
0.634 1133.9
0.635 1147.9
0.636 1121.7
0.637 1160
0.638 1167.8
0.639 1163
0.64 1138.8
0.641 1139.5
0.642 1141.8
0.643 1153.6
0.644 1148.6
0.645 1157.1
0.646 1124.3
0.647 1119.7
0.648 1109.2
0.649 1074.9
0.65 1080.6
0.651 1148.5
0.652 1103.4
0.653 1137.8
0.654 1125.3
0.655 1073.7
0.656 942.55
0.657 985.66
0.658 1101.8
0.659 1105.9
0.66 1113.1
0.661 1108.7
0.662 1099.9
0.663 1101.8
0.664 1111.3
0.665 1130.9
0.666 1130
0.667 1121.9
0.668 1125.7
0.669 1145.2
0.67 1129.5
0.671 1127.4
0.672 1111.6
0.673 1121.3
0.674 1119.7
0.675 1110.6
0.676 1123.6
0.677 1113.3
0.678 1119.2
0.679 1109.8
0.68 1111.6
0.681 1107.4
0.682 1112.7
0.683 1100.8
0.684 1093.7
0.685 1094.5
0.686 1.07E+03
0.687 7.76E+02
0.688 8.96E+02
0.689 9.02E+02
0.69 9.44E+02
0.691 9.84E+02
0.692 1.01E+03
0.693 1.01E+03
0.694 9.95E+02
0.695 1.01E+03
0.696 1.01E+03
0.697 1.07E+03
0.698 1.05E+03
0.699 1.03E+03
0.7 1.02E+03
0.701 1.01E+03
0.702 1.01E+03
0.703 1.02E+03
0.704 1.04E+03
0.705 1.05E+03
0.706 1.05E+03
0.707 1.04E+03
0.708 1.04E+03
0.709 1.04E+03
0.71 1.05E+03
0.711 1.05E+03
0.712 1042
0.713 1030
0.714 1039.2
0.715 1004.5
0.716 1015
0.717 886.1
0.718 825.1
0.719 740.74
0.72 790.54
0.721 869.9
0.722 991.58
0.723 916.17
0.724 846.51
0.725 832.76
0.726 867.02
0.727 870.11
0.728 834.77
0.729 839.48
0.73 904.87
0.731 858.82
0.732 924.72
0.733 958.26
0.734 989.89
0.735 975.84
0.736 966.39
0.737 965.04
0.738 983.13
0.739 954.18
0.74 977.46
0.741 973.78
0.742 974.31
0.743 994.77
0.744 1002.8
0.745 1002.5
0.746 1000.5
0.747 1001.2
0.748 995.39
0.749 992.13
0.75 991.02
0.751 986.69
0.752 990.36
0.753 985.47
0.754 998.08
0.755 995.27
0.756 983.27
0.757 982.53
0.758 988.68
0.759 961.05
0.76 217.29
0.761 125.96
0.762 558.18
0.763 309.61
0.764 438.57
0.765 557.19
0.766 660.08
0.767 787.51
0.768 898.67
0.769 909.67
0.77 935.96
0.771 942.1
0.772 949.66
0.773 949.27
0.774 949.53
0.775 949.59
0.776 951.9
0.777 946.38
0.778 945.47
0.779 949.85
0.78 939.6
0.781 937.47
0.782 942.01
0.783 938.3
0.784 932.14
0.785 936.31
0.786 936.96
0.787 925.89
0.788 914.37
0.789 910.78
0.79 883.21
0.791 894.96
0.792 886.61
0.793 880.55
0.794 888.13
0.795 885.1
0.796 870.36
0.797 884.26
0.798 900.8
0.799 883.55
0.8 869.27
0.801 879.11
0.802 880.26
0.803 864.26
0.804 874.49
0.805 855.31
0.806 890.09
0.807 880.94
0.808 877.96
0.809 856.06
0.81 857.25
0.811 855.36
0.812 834.34
0.813 819.86
0.814 735.85
0.815 729.22
0.816 678.61
0.817 694.55
0.818 670.94
0.819 737.29
0.82 702.61
0.821 811.59
0.822 774.56
0.823 550.28
0.824 761.71
0.825 789.26
0.826 760.94
0.827 801.81
0.828 693.58
0.829 757.47
0.83 746.87
0.831 753.35
0.832 729.56
0.833 779.35
0.834 761.64
0.835 817.13
0.836 792.67
0.837 822.2
0.838 814.21
0.839 815.96
0.84 827.76
0.841 823.38
0.842 812.7
0.843 819.38
0.844 804.11
0.845 828.67
0.846 830.61
0.847 808.63
0.848 809.19
0.849 804.24
0.85 729.08
0.851 795.51
0.852 791.01
0.853 787.48
0.854 694.79
0.855 745.33
0.856 794.55
0.857 809.64
0.858 809.95
0.859 809.84
0.86 807.05
0.861 806.04
0.862 812.37
0.863 817.36
0.864 799.97
0.865 787.04
0.866 693.78
0.867 748.17
0.868 784
0.869 776.19
0.87 790.99
0.871 779.88
0.872 790.58
0.873 782.77
0.874 769.17
0.875 758.2
0.876 779.49
0.877 782.33
0.878 779.34
0.879 766.48
0.88 769.02
0.881 743.78
0.882 763.34
0.883 760.76
0.884 763.98
0.885 773.26
0.886 743.37
0.887 745.87
0.888 755.55
0.889 765.59
0.89 757.12
0.891 758.68
0.892 744.9
0.893 716.09
0.894 698.5
0.895 668.1
0.896 626.84
0.897 548.08
0.898 590.53
0.899 452.65
0.9 610.7
0.901 494.01
0.902 549.76
0.903 567.2
0.904 693.68
0.905 671.48
0.906 637.74
0.907 526.31
0.908 537.37
0.909 579.79
0.91 515.05
0.911 550.48
0.912 567.43
0.913 518.16
0.914 516.7
0.915 559.02
0.916 475.88
0.917 601.24
0.918 489.19
0.919 608.38
0.92 612.75
0.921 642.19
0.922 576.92
0.923 613.11
0.924 594.4
0.925 586.04
0.926 579.48
0.927 648.18
0.928 487.01
0.929 455.6
0.93 357.84
0.931 339.03
0.932 249.71
0.933 206.36
0.934 119.67
0.935 208.4
0.936 134.3
0.937 135.94
0.938 166.81
0.939 330.69
0.94 390.68
0.941 308.52
0.942 335.98
0.943 231.27
0.944 237.41
0.945 305.52
0.946 161.95
0.947 307.99
0.948 227.95
0.949 409.19
0.95 122.67
0.951 400.84
0.952 223.61
0.953 285.41
0.954 351.79
0.955 283.31
0.956 272.68
0.957 225.14
0.958 382.27
0.959 310.49
0.96 349.13
0.961 382.53
0.962 366.54
0.963 418.63
0.964 380.42
0.965 417.61
0.966 416.8
0.967 416.6
0.968 539.3
0.969 567.27
0.97 525.13
0.971 589.97
0.972 568.59
0.973 502.19
0.974 476.58
0.975 488.6
0.976 473.96
0.977 528.61
0.978 509.43
0.979 528.28
0.98 500.97
0.981 589.98
0.982 572.77
0.983 553.52
0.984 609.62
0.985 569.53
0.986 620.73
0.987 611.37
0.988 607.59
0.989 619.31
0.99 605.69
0.991 623.2
0.992 621.12
0.993 609.94
0.994 623.72
0.995 621.8
0.996 619.48
0.997 611.97
0.998 611.32
0.999 611.09
1 608.49
1.001 616
1.002 602.67
1.003 607.85
1.004 598.79
1.005 564.34
1.006 589.91
1.007 602.37
1.008 601.88
1.009 596.04
1.01 595.62
1.011 598.6
1.012 595.37
1.013 594.4
1.014 596.97
1.015 586.66
1.016 589.3
1.017 582.8
1.018 591.83
1.019 570.86
1.02 579.3
1.021 581.66
1.022 571.74
1.023 576.24
1.024 572.6
1.025 578.32
1.026 577.42
1.027 574.73
1.028 575.43
1.029 569.18
1.03 572.75
1.031 570.16
1.032 570.63
1.033 560.94
1.034 564.33
1.035 566.2
1.036 565.99
1.037 560.19
1.038 557.52
1.039 561.4
1.04 557.57
1.041 557.68
1.042 557.92
1.043 552.35
1.044 554.94
1.045 551.82
1.046 537.44
1.047 545.62
1.048 550.48
1.049 547.37
1.05 543.82
1.051 544.34
1.052 541.04
1.053 539.42
1.054 537.19
1.055 538.9
1.056 537.25
1.057 535.97
1.058 530.48
1.059 514.36
1.06 528.61
1.061 516.48
1.062 526.05
1.063 517.54
1.064 525.53
1.065 523.23
1.066 513.28
1.067 515.98
1.068 515.31
1.069 487.74
1.07 503.14
1.071 513.05
1.072 512.08
1.073 502.33
1.074 517.24
1.075 493.25
1.076 511.62
1.077 503.12
1.078 502.25
1.079 503.43
1.08 497.35
1.081 483.75
1.082 490.79
1.083 498.09
1.084 482
1.085 494.21
1.086 461.95
1.087 472.42
1.088 494.19
1.089 482.72
1.09 463.36
1.091 490.34
1.092 484.41
1.093 426.06
1.094 449.85
1.095 434.39
1.096 420.03
1.097 482.27
1.098 419.83
1.099 423.81
1.1 405.79
1.101 415.08
1.102 391.7
1.103 389.75
1.104 390.82
1.105 422.97
1.106 332.99
1.107 403.61
1.108 347.75
1.109 345.39
1.11 400.36
1.111 277.83
1.112 346.1
1.113 225.27
1.114 251.47
1.115 209.73
1.116 169.16
1.117 67.024
1.118 182.71
1.119 95.226
1.12 119.35
1.121 156.23
1.122 68.78
1.123 107.85
1.124 91.492
1.125 121.38
1.126 43.467
1.127 132.28
1.128 83.553
1.129 89.175
1.13 59.46
1.131 248.17
1.132 196.76
1.133 129.02
1.134 35.19
1.135 13.041
1.136 108.42
1.137 241.76
1.138 170.97
1.139 250.67
1.14 215.14
1.141 162.68
1.142 189.04
1.143 261.87
1.144 95.422
1.145 122.99
1.146 132.75
1.147 49.91
1.148 227.91
1.149 183.87
1.15 102.51
1.151 171.19
1.152 208.27
1.153 200.31
1.154 120.06
1.155 263.15
1.156 236.17
1.157 264.36
1.158 261.98
1.159 283.05
1.16 240.87
1.161 291.88
1.162 294.03
1.163 392.88
1.164 337.33
1.165 326.32
1.166 314.88
1.167 344.14
1.168 352.18
1.169 355.07
1.17 384.84
1.171 376.21
1.172 381.67
1.173 383.01
1.174 283.31
1.175 379.67
1.176 399.95
1.177 396.37
1.178 302.65
1.179 405.82
1.18 370.07
1.181 382.14
1.182 271.96
1.183 368.32
1.184 352.75
1.185 342.41
1.186 400.58
1.187 382.77
1.188 281.96
1.189 349.25
1.19 388.31
1.191 375.23
1.192 397.53
1.193 381.68
1.194 393.83
1.195 375.53
1.196 362.47
1.197 400.67
1.198 364.57
1.199 306.87
1.2 376.56
1.201 367.29
1.202 367.36
1.203 364.7
1.204 304.89
1.205 367.11
1.206 403.7
1.207 361.22
1.208 364.16
1.209 348.04
1.21 380.78
1.211 354.83
1.212 357.06
1.213 394.3
1.214 364.72
1.215 359.52
1.216 391.7
1.217 382.45
1.218 385.84
1.219 375.25
1.22 384.8
1.221 390.87
1.222 379.27
1.223 373.15
1.224 376.56
1.225 388.47
1.226 393.35
1.227 363.99
1.228 392.02
1.229 392.58
1.23 386.6
1.231 396.62
1.232 391.86
1.233 381.59
1.234 395.09
1.235 390.83
1.236 394.23
1.237 389.51
1.238 393.34
1.239 388.94
1.24 387.33
1.241 388.38
1.242 388.81
1.243 384.7
1.244 382.83
1.245 383.91
1.246 386.37
1.247 384.72
1.248 385.72
1.249 386.62
1.25 384.45
1.251 380.73
1.252 379.37
1.253 376.7
1.254 373.3
1.255 379.21
1.256 370.48
1.257 366.38
1.258 374.46
1.259 359.67
1.26 362.91
1.261 346.5
1.262 333.26
1.263 337.07
1.264 313.03
1.265 333.3
1.266 324.59
1.267 327.04
1.268 312.21
1.269 208.2
1.27 326.4
1.271 343.78
1.272 344.24
1.273 342.13
1.274 342.04
1.275 347.24
1.276 351.12
1.277 353.72
1.278 360.1
1.279 357.55
1.28 355.45
1.281 348.12
1.282 314.15
1.283 343.05
1.284 354.4
1.285 357.12
1.286 359.77
1.287 355.6
1.288 353.73
1.289 344.95
1.29 347.84
1.291 352.07
1.292 333.96
1.293 347.69
1.294 340.68
1.295 341.49
1.296 328.47
1.297 313.17
1.298 330.35
1.299 344.36
1.3 297.96
1.301 305.64
1.302 330.38
1.303 292.17
1.304 253.9
1.305 323.73
1.306 324.35
1.307 258.42
1.308 292.87
1.309 324.07
1.31 254.42
1.311 281.74
1.312 281.51
1.313 264.82
1.314 243.7
1.315 241.56
1.316 273.83
1.317 263.76
1.318 281.49
1.319 227.1
1.32 218.83
1.321 252.45
1.322 255.43
1.323 197.02
1.324 222.06
1.325 272.34
1.326 237.25
1.327 225.24
1.328 198.51
1.329 150.47
1.33 194.09
1.331 122.79
1.332 123.62
1.333 172.02
1.334 143.47
1.335 195.78
1.336 155.52
1.337 139.52
1.338 150.95
1.339 149.91
1.34 142.72
1.341 144.51
1.342 150.93
1.343 107.9
1.344 64.264
1.345 92.596
1.346 49.453
1.347 51.098
1.348 4.0365
1.349 13.744
1.35 13.632
1.351 3.9394
1.352 1.2904
1.353 0.081779
1.354 0.24688
1.355 0.0030669
1.356 0.040916
1.357 0.061106
1.358 0.0035711
1.359 0.00062525
1.36 0.0018224
1.361 4.0984E-06
1.362 1.5393E-08
1.363 0.0026879
1.364 0.0011574
1.365 7.7305E-09
1.366 0.010895
1.367 0.0042388
1.368 1.2595E-10
1.369 0.00044014
1.37 0.00024877
1.371 0.000016811
1.372 0.0023431
1.373 0.037838
1.374 0.1527
1.375 0.27556
1.376 0.21946
1.377 0.10459
1.378 0.94531
1.379 0.044476
1.38 0.069567
1.381 0.0020224
1.382 0.0021892
1.383 0.00003754
1.384 0.00052616
1.385 0.0017827
1.386 0.0021511
1.387 0.16976
1.388 0.0034358
1.389 0.49585
1.39 0.42102
1.391 0.29348
1.392 0.0203
1.393 0.098909
1.394 0.064486
1.395 0.00057329
1.396 5.3986E-06
1.397 0.041899
1.398 1.0851
1.399 0.69385
1.4 2.7736E-06
1.401 8.9944E-06
1.402 1.5681
1.403 2.0338
1.404 0.63154
1.405 0.00031152
1.406 1.748
1.407 0.14925
1.408 1.4102
1.409 0.52949
1.41 0.39898
1.411 1.8082
1.412 2.2576
1.413 19.97
1.414 0.31121
1.415 0.15714
1.416 30.419
1.417 10.061
1.418 11.602
1.419 1.8352
1.42 7.0796
1.421 7.8435
1.422 39.627
1.423 7.8928
1.424 14.532
1.425 22.129
1.426 23.792
1.427 42.406
1.428 3.9044
1.429 32.552
1.43 52.731
1.431 42.944
1.432 2.1585
1.433 30.69
1.434 17.958
1.435 18.349
1.436 32.852
1.437 25.599
1.438 11.365
1.439 43.719
1.44 33.927
1.441 27.248
1.442 31.118
1.443 38.61
1.444 52.935
1.445 42.63
1.446 19.796
1.447 31.038
1.448 99.051
1.449 87.464
1.45 23.499
1.451 9.6642
1.452 53.441
1.453 70.239
1.454 117.8
1.455 56.69
1.456 75.832
1.457 100.21
1.458 116.82
1.459 139.59
1.46 73.194
1.461 77.353
1.462 111.85
1.463 37.06
1.464 130
1.465 80.016
1.466 55.888
1.467 30.918
1.468 65.948
1.469 81.277
1.47 42.597
1.471 15.309
1.472 40.105
1.473 60.175
1.474 83.408
1.475 158.03
1.476 58.959
1.477 59.777
1.478 54.416
1.479 102.8
1.48 51.984
1.481 98.766
1.482 50.14
1.483 127.22
1.484 117.72
1.485 107.1
1.486 105.69
1.487 51.967
1.488 80.67
1.489 162.33
1.49 149.57
1.491 169.19
1.492 140.7
1.493 155.36
1.494 174.22
1.495 156.19
1.496 144.21
1.497 195.38
1.498 162.28
1.499 186.07
1.5 214.22
1.501 226.92
1.502 199.69
1.503 158.19
1.504 137.18
1.505 157.42
1.506 220.27
1.507 218.1
1.508 207.77
1.509 159.91
1.51 231.21
1.511 226.29
1.512 222.81
1.513 207.23
1.514 193.02
1.515 227.12
1.516 219.54
1.517 213.12
1.518 215.54
1.519 208.94
1.52 226.1
1.521 235.07
1.522 225.47
1.523 239.34
1.524 235.38
1.525 221.27
1.526 228.64
1.527 224.16
1.528 238.72
1.529 232.89
1.53 218.18
1.531 230.6
1.532 237.99
1.533 236.92
1.534 229.92
1.535 228.18
1.536 234.82
1.537 233.76
1.538 232.6
1.539 233.41
1.54 226.53
1.541 230.08
1.542 230.3
1.543 232.71
1.544 232.74
1.545 236.97
1.546 235.05
1.547 233.57
1.548 228.15
1.549 233.85
1.55 230.84
1.551 231.43
1.552 232.5
1.553 232.07
1.554 226.45
1.555 228.89
1.556 225.06
1.557 231.49
1.558 229.67
1.559 229.32
1.56 227.27
1.561 230.98
1.562 228.88
1.563 228.12
1.564 224.67
1.565 228.63
1.566 224.5
1.567 225.04
1.568 220.03
1.569 217.73
1.57 206.82
1.571 201.13
1.572 203.4
1.573 200.25
1.574 206.53
1.575 205.03
1.576 211.08
1.577 184.79
1.578 201.17
1.579 202.49
1.58 209.24
1.581 212.7
1.582 206.92
1.583 211.7
1.584 212.96
1.585 221.25
1.586 218.63
1.587 216.35
1.588 214.67
1.589 198.64
1.59 206.73
1.591 206.88
1.592 215.67
1.593 220.87
1.594 219.09
1.595 220.79
1.596 209.07
1.597 211.12
1.598 217.36
1.599 206.95
1.6 203.62
1.601 190.93
1.602 191.71
1.603 191.58
1.604 195.39
1.605 202.55
1.606 206.45
1.607 199.26
1.608 196.67
1.609 194.43
1.61 186.14
1.611 194
1.612 197.37
1.613 202.87
1.614 203.89
1.615 206.16
1.616 197.14
1.617 200.68
1.618 208.27
1.619 206.12
1.62 200.55
1.621 200.39
1.622 203.17
1.623 207.38
1.624 207.59
1.625 203.42
1.626 205.05
1.627 205.97
1.628 206.38
1.629 206.48
1.63 202.32
1.631 203.66
1.632 203.79
1.633 199.06
1.634 199.19
1.635 199.93
1.636 201.4
1.637 194.22
1.638 188.32
1.639 188.47
1.64 184.1
1.641 187.92
1.642 188.97
1.643 184.32
1.644 191.31
1.645 186.76
1.646 186.16
1.647 194.85
1.648 185.36
1.649 187.16
1.65 192.8
1.651 178.54
1.652 191.5
1.653 190.68
1.654 184.78
1.655 190.31
1.656 189.21
1.657 190.26
1.658 192.52
1.659 189.38
1.66 191.21
1.661 191.67
1.662 187.62
1.663 190.41
1.664 189.25
1.665 181.4
1.666 153.27
1.667 180.48
1.668 183.82
1.669 184.32
1.67 189.91
1.671 187.45
1.672 181.18
1.673 185.32
1.674 184.88
1.675 183.05
1.676 181.2
1.677 181.94
1.678 179.27
1.679 182.58
1.68 176.21
1.681 166.7
1.682 174.57
1.683 179.21
1.684 169.75
1.685 182.78
1.686 180.26
1.687 175.63
1.688 180.15
1.689 177.64
1.69 175.99
1.691 165.57
1.692 177.6
1.693 181.24
1.694 175.62
1.695 179.83
1.696 179.44
1.697 155.37
1.698 177.88
1.699 176.28
1.7 171.35
1.702 174.96
1.705 169.68
1.71 161.24
1.715 162.78
1.72 160.5
1.725 152.89
1.73 149.47
1.735 138.72
1.74 144.43
1.745 132.98
1.75 142.29
1.755 131.44
1.76 137.41
1.765 114.16
1.77 121.76
1.775 98.714
1.78 86.404
1.785 66.206
1.79 76.446
1.795 40.379
1.8 27.391
1.805 12.752
1.81 8.3429
1.815 2.8255
1.82 0.85029
1.825 1.0972
1.83 0.004481
1.835 0.0055276
1.84 0.000054002
1.845 0.0053968
1.85 0.0025839
1.855 0.00024472
1.86 0.009614
1.865 0.014654
1.87 2.3022E-07
1.875 0.00000039
1.88 0.067022
1.885 0.037973
1.89 0.19331
1.895 0.11219
1.9 0.00074765
1.905 0.00049127
1.91 0.020009
1.915 0.017322
1.92 0.39138
1.925 0.8129
1.93 0.47963
1.935 3.1194
1.94 2.849
1.945 9.4271
1.95 14.512
1.955 8.7044
1.96 18.991
1.965 24.754
1.97 42.312
1.975 58.754
1.98 65.362
1.985 71.87
1.99 74.07
1.995 70.251
2 33.009
2.005 12.984
2.01 34.4
2.015 23.075
2.02 38.95
2.025 64.078
2.03 73.483
2.035 83.474
2.04 77.783
2.045 78.921
2.05 58.896
2.055 47.624
2.06 60.01
2.065 53.675
2.07 56.979
2.075 67.184
2.08 75.305
2.085 73.825
2.09 77.287
2.095 77.852
2.1 74.726
2.105 80.803
2.11 77.764
2.115 79.515
2.12 75.97
2.125 76.87
2.13 77.855
2.135 78.081
2.14 78.708
2.145 77.6
2.15 73.406
2.155 73.58
2.16 73.004
2.165 66.192
2.17 71.124
2.175 69.786
2.18 70.966
2.185 64.681
2.19 68.597
2.195 68.534
2.2 61.791
2.205 64.231
2.21 68.834
2.215 66.206
2.22 67.476
2.225 65.512
2.23 65.799
2.235 64.534
2.24 63.522
2.245 61.56
2.25 62.548
2.255 58.877
2.26 58.242
2.265 59.31
2.27 56.477
2.275 55.747
2.28 57.721
2.285 54.937
2.29 55.065
2.295 53.364
2.3 51.242
2.305 51.551
2.31 55.642
2.315 50.657
2.32 45.34
2.325 48.983
2.33 49.516
2.335 50.512
2.34 39.948
2.345 44.795
2.35 36.205
2.355 41.377
2.36 43.786
2.365 43.069
2.37 26.871
2.375 38.486
2.38 37.098
2.385 26.881
2.39 32.36
2.395 35.399
2.4 38.505
2.405 29.312
2.41 29.504
2.415 23.828
2.42 23.211
2.425 28.886
2.43 39.385
2.435 13.002
2.44 37.802
2.445 18.191
2.45 11.909
2.455 21.747
2.46 29.199
2.465 21.143
2.47 14.649
2.475 14.414
2.48 7.0447
2.485 4.9175
2.49 3.0785
2.495 2.5228
2.5 6.1934
2.505 1.3319
2.51 1.943
2.515 0.4548
2.52 0.32477
2.525 0.036277
2.53 0.00055727
2.535 0.00015336
2.54 0.00033043
2.545 4.7087E-08
2.55 2.4717E-10
2.555 9.1381E-07
2.56 2.7161E-08
2.565 1.3955E-11
2.57 1.3343E-15
2.575 9.43E-25
2.58 3.3406E-19
2.585 1.5028E-31
2.59 4.788E-28
2.595 1.9961E-30
2.6 3.9239E-25
2.605 5.0719E-32
2.61 5.1933E-31
2.615 9.7807E-35
2.62 4.9367E-26
2.625 3.3798E-25
2.63 1.4013E-42
2.635 3.4099E-13
2.64 1.0266E-13
2.645 7.8637E-16
2.65 1.2493E-16
2.655 1.1481E-24
2.66 2.2791E-22
2.665 9.7273E-35
2.67 0
2.675 0
2.68 0
2.685 0
2.69 8.9631E-27
2.695 6.254E-30
2.7 0
2.705 2.577E-39
2.71 9.8979E-33
2.715 3.3949E-23
2.72 5.6052E-42
2.725 6.4372E-19
2.73 5.3659E-16
2.735 4.8544E-18
2.74 2.0639E-24
2.745 1.1646E-20
2.75 1.4758E-25
2.755 5.8855E-41
2.76 0
2.765 2.3779E-24
2.77 7.4442E-21
2.775 3.5545E-35
2.78 4.2741E-31
2.785 3.4571E-24
2.79 1.0828E-13
2.795 3.2226E-13
2.8 1.4677E-09
2.805 6.0088E-11
2.81 3.5839E-07
2.815 2.5555E-07
2.82 1.8308E-08
2.825 0.00015689
2.83 0.0034765
2.835 1.8964E-07
2.84 0.00017481
2.845 0.036173
2.85 0.0010312
2.855 0.00040005
2.86 0.022609
2.865 0.14948
2.87 0.0056296
2.875 0.34931
2.88 0.2205
2.885 0.40429
2.89 0.16609
2.895 2.3762
2.9 0.72377
2.905 0.098961
2.91 2.4277
2.915 1.1221
2.92 2.5818
2.925 0.96637
2.93 5.2494
2.935 5.7883
2.94 1.4512
2.945 1.2922
2.95 4.6619
2.955 2.0833
2.96 4.0995
2.965 6.6327
2.97 0.31419
2.975 0.76177
2.98 1.1932
2.985 6.2084
2.99 9.1653
2.995 3.8121
3 6.9962
3.005 2.5769
3.01 6.1048
3.015 4.9522
3.02 0.56489
3.025 6.6886
3.03 5.4153
3.035 2.2272
3.04 1.8042
3.045 3.7516
3.05 0.91994
3.055 0.25799
3.06 5.6153
3.065 2.5943
3.07 1.5587
3.075 5.3657
3.08 3.2273
3.085 1.5743
3.09 2.1207
3.095 0.58358
3.1 3.9201
3.105 0.82081
3.11 0.75318
3.115 2.0195
3.12 8.7445
3.125 2.697
3.13 5.1296
3.135 10.19
3.14 2.9593
3.145 2.8946
3.15 5.9408
3.155 5.0167
3.16 8.2161
3.165 12.473
3.17 11.136
3.175 8.2123
3.18 9.4494
3.185 7.1901
3.19 3.7707
3.195 2.3951
3.2 0.38995
3.205 0.27547
3.21 0.12125
3.215 0.44242
3.22 1.4306
3.225 0.17671
3.23 0.30299
3.235 6.4839
3.24 3.3303
3.245 0.65253
3.25 2.3169
3.255 8.8318
3.26 1.0885
3.265 2.174
3.27 1.0825
3.275 5.2627
3.28 2.5442
3.285 9.8838
3.29 7.7771
3.295 1.0865
3.3 1.5802
3.305 3.5003
3.31 3.4843
3.315 0.014328
3.32 0.053276
3.325 3.1251
3.33 4.1403
3.335 8.0554
3.34 3.0737
3.345 3.1458
3.35 7.1331
3.355 3.2269
3.36 4.6579
3.365 6.3927
3.37 3.5024
3.375 7.5198
3.38 4.5463
3.385 6.6621
3.39 8.767
3.395 8.4936
3.4 11.13
3.405 3.9683
3.41 6.3007
3.415 6.4766
3.42 11.717
3.425 8.9051
3.43 7.733
3.435 10.28
3.44 7.1492
3.445 10.069
3.45 9.9226
3.455 7.392
3.46 11.147
3.465 8.7327
3.47 10.908
3.475 9.7321
3.48 9.9817
3.485 10.754
3.49 9.2646
3.495 10.905
3.5 10.596
3.505 10.5
3.51 10.636
3.515 10.214
3.52 10.767
3.525 10.148
3.53 9.8783
3.535 8.3929
3.54 8.0148
3.545 8.4678
3.55 9.3492
3.555 8.0354
3.56 9.5743
3.565 9.6233
3.57 7.3931
3.575 7.6641
3.58 9.0312
3.585 8.1268
3.59 8.3789
3.595 8.5712
3.6 9.0951
3.605 9.1808
3.61 8.4
3.615 8.3941
3.62 10.291
3.625 9.0721
3.63 8.8204
3.635 9.125
3.64 10.171
3.645 9.3903
3.65 8.9679
3.655 9.7244
3.66 9.6679
3.665 9.0818
3.67 6.9979
3.675 4.2772
3.68 7.3788
3.685 8.3578
3.69 8.5825
3.695 8.9716
3.7 9.6312
3.705 9.5344
3.71 8.2895
3.715 8.1663
3.72 9.1839
3.725 9.4679
3.73 8.2049
3.735 7.5965
3.74 7.8309
3.745 9.1412
3.75 8.22
3.755 7.9554
3.76 7.8414
3.765 7.5639
3.77 8.071
3.775 8.0066
3.78 8.4681
3.785 7.7936
3.79 6.8594
3.795 7.8427
3.8 8.7173
3.805 8.2265
3.81 7.2892
3.815 6.8573
3.82 8.5341
3.825 8.4015
3.83 8.4778
3.835 6.7977
3.84 7.9316
3.845 7.7582
3.85 7.7998
3.855 7.5176
3.86 7.0625
3.865 7.155
3.87 6.5025
3.875 5.9736
3.88 5.772
3.885 5.9818
3.89 6.0789
3.895 6.6034
3.9 6.9999
3.905 7.0011
3.91 6.3019
3.915 6.1707
3.92 6.135
3.925 6.0513
3.93 6.2261
3.935 6.4941
3.94 6.5368
3.945 6.6588
3.95 6.7348
3.955 6.8161
3.96 6.8407
3.965 6.8913
3.97 6.7807 
3.975 6.6295 
3.98 6.5211 
3.985 6.561 
3.99 6.5074 
3.995 6.3638 
4 6.2701 
