Description: ASTM E308-90 Table 5.1 - Weights for Illuminant A, 1931 Observer, 10 nm interval.  Y column
Type: Source
Wavelength Units: nanometers 
     360   0.000
     370   0.000
     380   0.000
     390   0.000
     400   0.000
     410   0.002
     420   0.008
     430   0.027
     440   0.061
     450   0.117
     460   0.209
     470   0.362
     480   0.618
     490   1.039
     500   1.802
     510   3.091
     520   4.756
     530   6.320
     540   7.599
     550   8.571
     560   9.219
     570   9.456
     580   9.224
     590   8.543
     600   7.547
     610   6.360
     620   5.061
     630   3.716
     640   2.559
     650   1.639
     660   0.971
     670   0.533
     680   0.289
     690   0.147
     700   0.075
     710   0.039
     720   0.020
     730   0.010
     740   0.005
     750   0.003
     760   0.001
     770   0.001
     780   0.000
