Description: ASTM G197-08 (Table 3), Global Irradiance on 90 degree Tilt at Air Mass 1.5 - Standard Curve in Wm-2nm-1. Global spectral irradiance at lam, centered on lam. Converted to W m-2 um-1. Total irradiance is 810.30 W/m2.
Type: Source
Wavelength Units: micron

0.28 2.7481E-20
0.2805 7.15E-19
0.281 3.3059E-18
0.2815 9.1033E-17
0.282 6.9449E-16
0.2825 2.6422E-15
0.283 1.0733E-14
0.2835 2.0573E-14
0.284 4.232E-13
0.2845 1.4485E-12
0.285 4.6744E-12
0.2855 2.4887E-11
0.286 7.9976E-11
0.2865 4.9068E-10
0.287 1.6044E-09
0.2875 6.4069E-09
0.288 3.6767E-08
0.2885 1.0148E-07
0.289 3.337E-07
0.2895 1.2353E-06
0.29 3.5954E-06
0.2905 8.2649E-06
0.291 0.000021117
0.2915 0.000066181
0.292 0.00016371
0.2925 0.00026151
0.293 0.00053256
0.2935 0.0014093
0.294 0.002606
0.2945 0.0041344
0.295 0.0077558
0.2955 0.017697
0.296 0.03064
0.2965 0.045892
0.297 0.062561
0.2975 0.12104
0.298 0.18959
0.2985 0.23508
0.299 0.32457
0.2995 0.57114
0.3 0.67964
0.3005 0.83195
0.301 1.2957
0.3015 1.8137
0.302 1.9727
0.3025 2.9035
0.303 4.8282
0.3035 6.1261
0.304 6.4667
0.3045 8.1686
0.305 11.256
0.3055 12.805
0.306 12.716
0.3065 14.455
0.307 19.069
0.3075 24.393
0.308 25.917
0.3085 28.384
0.309 27.778
0.3095 29.651
0.31 34.875
0.3105 44.887
0.311 56.792
0.3115 57.612
0.312 63.915
0.3125 67.719
0.313 73.436
0.3135 73.7
0.314 81.935
0.3145 89.264
0.315 93.161
0.3155 81.096
0.316 84.491
0.3165 102.76
0.317 117.32
0.3175 124.89
0.318 120.35
0.3185 126.91
0.319 139.63
0.3195 133.96
0.32 140.48
0.3205 167.49
0.321 170.55
0.3215 162.54
0.322 151.83
0.3225 148.5
0.323 145.01
0.3235 169.38
0.324 187.6
0.3245 193.27
0.325 190.83
0.3255 221.68
0.326 260.07
0.3265 277.52
0.327 271.54
0.3275 262.68
0.328 240.41
0.3285 253.9
0.329 288.1
0.3295 319.73
0.33 321.79
0.3305 292.72
0.331 275.61
0.3315 285.98
0.332 298.05
0.3325 299.98
0.333 293.55
0.3335 278.81
0.334 284.26
0.3345 304.61
0.335 317.35
0.3355 309.99
0.336 284.15
0.3365 261.83
0.337 256.36
0.3375 274.85
0.338 297.7
0.3385 312.14
0.339 317.87
0.3395 325.5
0.34 344.59
0.3405 343.93
0.341 323.72
0.3415 322.35
0.342 336.18
0.3425 348.87
0.343 354.02
0.3435 334.38
0.344 288.13
0.3445 277.54
0.345 316.03
0.3455 336.99
0.346 329.13
0.3465 335.28
0.347 340.58
0.3475 328.78
0.348 327.72
0.3485 333.48
0.349 321.35
0.3495 330.03
0.35 364.61
0.3505 391.99
0.351 381.33
0.3515 366.69
0.352 358.27
0.3525 338.78
0.353 360.19
0.3535 396.23
0.354 419.01
0.3545 423.73
0.355 423.79
0.3555 409.28
0.356 384.16
0.3565 360.39
0.357 317.02
0.3575 320.89
0.358 298.71
0.3585 277.41
0.359 326.36
0.3595 393.23
0.36 416.08
0.3605 393.37
0.361 362.14
0.3615 354.82
0.362 372.1
0.3625 407.7
0.363 419.55
0.3635 408.2
0.364 422.91
0.3645 419.08
0.365 435.3
0.3655 479.23
0.366 513.66
0.3665 514.71
0.367 505.3
0.3675 495.89
0.368 466.99
0.3685 464.02
0.369 485.21
0.3695 521.46
0.37 528.91
0.3705 478.31
0.371 486.02
0.3715 505.21
0.372 473.07
0.3725 450.83
0.373 434.36
0.3735 391.67
0.374 390.77
0.3745 388
0.375 414.15
0.3755 458.09
0.376 474.55
0.3765 467.03
0.377 501.2
0.3775 559.29
0.378 602.71
0.3785 587.67
0.379 524.32
0.3795 470.24
0.38 494.4
0.3805 529.88
0.381 539.35
0.3815 486.27
0.382 414.68
0.3825 358.89
0.383 321.81
0.3835 311.64
0.384 360.69
0.3845 434.35
0.385 476.92
0.3855 455.86
0.386 439.98
0.3865 457.63
0.387 461.88
0.3875 455.35
0.388 451.09
0.3885 448.07
0.389 486.6
0.3895 539.51
0.39 566.18
0.3905 571.16
0.391 605.26
0.3915 614.07
0.392 565.56
0.3925 471.56
0.393 341.56
0.3935 271.7
0.394 353.09
0.3945 487.28
0.395 575.71
0.3955 613.42
0.396 539.58
0.3965 392.52
0.397 304.17
0.3975 449.39
0.398 608.82
0.3985 719.28
0.399 764.05
0.3995 787.72
0.4 796.51
0.401 829.96
0.402 863.24
0.403 831.63
0.404 845.45
0.405 825.07
0.406 805.07
0.407 791.12
0.408 826.51
0.409 883.11
0.41 753.06
0.411 843.45
0.412 896.98
0.413 860.96
0.414 852.06
0.415 882.45
0.416 909.3
0.417 887.34
0.418 849.25
0.419 884.39
0.42 810.83
0.421 921.28
0.422 909.09
0.423 880.61
0.424 876.08
0.425 903.25
0.426 877.92
0.427 848.4
0.428 856.95
0.429 793.74
0.43 633.4
0.431 575.29
0.432 957.45
0.433 891.28
0.434 823.75
0.435 903.99
0.436 991.86
0.437 1012.7
0.438 889.05
0.439 855.72
0.44 981.31
0.441 968.32
0.442 1037
0.443 1052.2
0.444 1025.8
0.445 1065.3
0.446 955.6
0.447 1087
0.448 1100.6
0.449 1098.5
0.45 1139.2
0.451 1182.1
0.452 1132.2
0.453 1046
0.454 1122.4
0.455 1114.9
0.456 1152.1
0.457 1162.2
0.458 1137.9
0.459 1129.4
0.46 1122.5
0.461 1162.5
0.462 1173.8
0.463 1178.4
0.464 1143
0.465 1129.3
0.466 1153.7
0.467 1102.9
0.468 1151.2
0.469 1156.6
0.47 1112.5
0.471 1131.6
0.472 1190.7
0.473 1145
0.474 1158.2
0.475 1196.8
0.476 1156.3
0.477 1163.7
0.478 1201.8
0.479 1179.1
0.48 1199.1
0.481 1199.5
0.482 1204.5
0.483 1190.5
0.484 1168.6
0.485 1165.6
0.486 945.72
0.487 1059.8
0.488 1147.9
0.489 1082
0.49 1209.8
0.491 1163.5
0.492 1109.9
0.493 1187.9
0.494 1160.3
0.495 1232.6
0.496 1172.8
0.497 1193.4
0.498 1161.4
0.499 1162
0.5 1158.5
0.501 1123.7
0.502 1123.6
0.503 1175.9
0.504 1096.7
0.505 1176
0.506 1223.9
0.507 1171.7
0.508 1142.6
0.509 1198.1
0.51 1167.6
0.511 1190
0.512 1222.2
0.513 1148.9
0.514 1125.2
0.515 1158.2
0.516 1169.4
0.517 953.44
0.518 1090.9
0.519 1057.8
0.52 1155.4
0.521 1164.6
0.522 1191.5
0.523 1123.8
0.524 1209.4
0.525 1200.7
0.526 1168
0.527 1022.3
0.528 1171
0.529 1226.1
0.53 1179.2
0.531 1244.5
0.532 1222.8
0.533 1092.6
0.534 1171.1
0.535 1189.7
0.536 1241.4
0.537 1149.5
0.538 1207.8
0.539 1178.8
0.54 1138.9
0.541 1096.2
0.542 1194.6
0.543 1176.3
0.544 1218.9
0.545 1192.4
0.546 1182.8
0.547 1199.5
0.548 1166.8
0.549 1204.6
0.55 1196.6
0.551 1198
0.552 1225.3
0.553 1193.1
0.554 1219.2
0.555 1228.6
0.556 1210.2
0.557 1183.2
0.558 1211.3
0.559 1148.5
0.56 1171.5
0.561 1240.5
0.562 1182
0.563 1227.7
0.564 1204.5
0.565 1213
0.566 1148
0.567 1224.6
0.568 1214.4
0.569 1185.6
0.57 1187.2
0.571 1149.3
0.572 1214.7
0.573 1220.7
0.574 1215.2
0.575 1188.6
0.576 1179.6
0.577 1210.3
0.578 1173.9
0.579 1191.7
0.58 1212.7
0.581 1219.2
0.582 1238.9
0.583 1252.6
0.584 1250.9
0.585 1241.7
0.586 1212.7
0.587 1240.4
0.588 1213.1
0.589 1048.2
0.59 1115.3
0.591 1193.5
0.592 1169.3
0.593 1186.9
0.594 1182.1
0.595 1168
0.596 1204.3
0.597 1208.7
0.598 1194.6
0.599 1195.5
0.6 1208.2
0.601 1194.8
0.602 1177.7
0.603 1203.5
0.604 1225.5
0.605 1224.3
0.606 1219.1
0.607 1227.3
0.608 1224.2
0.609 1215.8
0.61 1211.5
0.611 1205.7
0.612 1224.3
0.613 1207.5
0.614 1171.2
0.615 1214.7
0.616 1183.1
0.617 1168.5
0.618 1213.3
0.619 1219.4
0.62 1220.3
0.621 1225.9
0.622 1182.2
0.623 1174
0.624 1170.5
0.625 1163.2
0.626 1162.3
0.627 1196.2
0.628 1131.6
0.629 1172
0.63 1156.7
0.631 1176.8
0.632 1133.7
0.633 1206.3
0.634 1188
0.635 1203
0.636 1176
0.637 1216.5
0.638 1225
0.639 1220.4
0.64 1195.4
0.641 1196.2
0.642 1198.7
0.643 1211.2
0.644 1206.1
0.645 1215.1
0.646 1180.5
0.647 1175.4
0.648 1164.4
0.649 1128.4
0.65 1134.8
0.651 1206.5
0.652 1158.8
0.653 1195.8
0.654 1182.9
0.655 1128.7
0.656 991.2
0.657 1036.8
0.658 1159.3
0.659 1163.9
0.66 1171.5
0.661 1167
0.662 1157.6
0.663 1159.9
0.664 1170.5
0.665 1191.5
0.666 1190.9
0.667 1182.6
0.668 1186.9
0.669 1207.7
0.67 1191.4
0.671 1189.4
0.672 1173
0.673 1183.4
0.674 1182
0.675 1172.6
0.676 1186.5
0.677 1175.8
0.678 1182.3
0.679 1172.5
0.68 1174.7
0.681 1170.4
0.682 1176.3
0.683 1163.9
0.684 1156.7
0.685 1157.8
0.686 1132
0.687 816.46
0.688 944.9
0.689 951.23
0.69 997.25
0.691 1040.6
0.692 1070.8
0.693 1064.4
0.694 1052.6
0.695 1074
0.696 1071.8
0.697 1132.7
0.698 1115.2
0.699 1092.5
0.7 1084.8
0.701 1071.2
0.702 1072.5
0.703 1078.9
0.704 1107.2
0.705 1119
0.706 1113.3
0.707 1108.9
0.708 1105.7
0.709 1109.9
0.71 1116.9
0.711 1115.3
0.712 1108.2
0.713 1095.4
0.714 1105.1
0.715 1067.9
0.716 1079
0.717 939.76
0.718 874.19
0.719 784.08
0.72 837.08
0.721 922.41
0.722 1053.5
0.723 972.18
0.724 897.03
0.725 882.35
0.726 919.19
0.727 922.51
0.728 884.52
0.729 890.17
0.73 959.94
0.731 910.6
0.732 981.34
0.733 1017.8
0.734 1051.6
0.735 1036.5
0.736 1026.5
0.737 1025
0.738 1044.7
0.739 1013.9
0.74 1038.8
0.741 1034.9
0.742 1035.6
0.743 1057.3
0.744 1065.9
0.745 1065.6
0.746 1063.4
0.747 1064.2
0.748 1058
0.749 1054.5
0.75 1053.3
0.751 1048.8
0.752 1052.7
0.753 1047.6
0.754 1061.1
0.755 1058.1
0.756 1045.4
0.757 1044.7
0.758 1051.3
0.759 1021.7
0.76 227.99
0.761 131.99
0.762 589.09
0.763 325.37
0.764 461.88
0.765 588.05
0.766 698.23
0.767 834.91
0.768 954.51
0.769 966.62
0.77 995.04
0.771 1001.8
0.772 1009.9
0.773 1009.5
0.774 1009.8
0.775 1009.9
0.776 1012.3
0.777 1006.4
0.778 1005.5
0.779 1010.1
0.78 999.26
0.781 997.02
0.782 1001.9
0.783 997.98
0.784 991.46
0.785 995.91
0.786 996.61
0.787 984.67
0.788 972.34
0.789 968.47
0.79 938.84
0.791 951.57
0.792 942.66
0.793 936.11
0.794 944.51
0.795 941.13
0.796 924.94
0.797 939.68
0.798 957.6
0.799 939.1
0.8 923.74
0.801 933.93
0.802 934.99
0.803 917.76
0.804 928.48
0.805 908.05
0.806 944.96
0.807 935
0.808 931.67
0.809 908.1
0.81 909.04
0.811 906.75
0.812 883.92
0.813 868.16
0.814 777.88
0.815 770.7
0.816 716.49
0.817 733.37
0.818 708.18
0.819 779.11
0.82 741.86
0.821 858.47
0.822 818.87
0.823 579.25
0.824 804.72
0.825 834.17
0.826 803.66
0.827 847.32
0.828 731.47
0.829 799.78
0.83 788.4
0.831 795.18
0.832 769.63
0.833 822.97
0.834 803.72
0.835 862.96
0.836 836.47
0.837 868.04
0.838 859.28
0.839 861.18
0.84 873.54
0.841 868.71
0.842 857.45
0.843 864.51
0.844 848.21
0.845 874.12
0.846 876.07
0.847 852.81
0.848 853.23
0.849 847.89
0.85 768.56
0.851 838.34
0.852 833.44
0.853 829.59
0.854 731.74
0.855 784.86
0.856 836.5
0.857 852.25
0.858 852.39
0.859 852.12
0.86 849.03
0.861 847.83
0.862 854.36
0.863 859.48
0.864 841.07
0.865 827.36
0.866 729.2
0.867 786.25
0.868 823.79
0.869 815.46
0.87 830.88
0.871 819.05
0.872 830.12
0.873 821.76
0.874 807.31
0.875 795.64
0.876 817.82
0.877 820.64
0.878 817.33
0.879 803.69
0.88 806.2
0.881 779.58
0.882 799.97
0.883 797.16
0.884 800.41
0.885 810.01
0.886 778.49
0.887 781.06
0.888 791.02
0.889 801.52
0.89 792.43
0.891 793.94
0.892 779.22
0.893 748.67
0.894 729.84
0.895 697.52
0.896 653.8
0.897 570.83
0.898 615.35
0.899 470.57
0.9 636.36
0.901 513.78
0.902 572.36
0.903 590.34
0.904 723.37
0.905 699.89
0.906 664.36
0.907 547.19
0.908 558.79
0.909 603.33
0.91 535.27
0.911 572.35
0.912 590.1
0.913 538.31
0.914 536.73
0.915 581.05
0.916 493.91
0.917 625.21
0.918 507.74
0.919 632.54
0.92 637.11
0.921 668.03
0.922 599.44
0.923 637.54
0.924 617.51
0.925 608.61
0.926 601.83
0.927 673.57
0.928 504.73
0.929 471.88
0.93 370.01
0.931 350.42
0.932 257.73
0.933 212.83
0.934 123.25
0.935 214.91
0.936 138.33
0.937 140
0.938 171.85
0.939 341.49
0.94 403.81
0.941 318.46
0.942 346.97
0.943 238.39
0.944 244.74
0.945 315.23
0.946 166.71
0.947 317.72
0.948 234.85
0.949 422.66
0.95 126.16
0.951 413.92
0.952 230.26
0.953 294.13
0.954 362.87
0.955 291.96
0.956 280.88
0.957 231.69
0.958 394.29
0.959 319.85
0.96 359.81
0.961 394.42
0.962 377.81
0.963 431.81
0.964 392.17
0.965 430.68
0.966 429.82
0.967 429.54
0.968 557.14
0.969 586.2
0.97 542.22
0.971 609.83
0.972 587.46
0.973 518.31
0.974 491.71
0.975 504.17
0.976 488.87
0.977 545.75
0.978 525.72
0.979 545.37
0.98 516.88
0.981 609.61
0.982 591.64
0.983 571.63
0.984 630.2
0.985 588.38
0.986 641.87
0.987 632.11
0.988 628.21
0.989 640.55
0.99 626.32
0.991 644.56
0.992 642.42
0.993 630.74
0.994 645.12
0.995 643.15
0.996 640.72
0.997 632.97
0.998 632.28
0.999 632.05
1 629.33
1.001 637.16
1.002 623.26
1.003 628.77
1.004 619.39
1.005 583.82
1.006 610.28
1.007 623.21
1.008 622.7
1.009 616.65
1.01 616.24
1.011 619.45
1.012 616.13
1.013 615.22
1.014 617.93
1.015 607.31
1.016 610.1
1.017 603.42
1.018 612.83
1.019 591.13
1.02 599.96
1.021 602.52
1.022 592.34
1.023 597.1
1.024 593.39
1.025 599.5
1.026 598.66
1.027 595.97
1.028 596.8
1.029 590.43
1.03 594.25
1.031 591.65
1.032 592.22
1.033 582.24
1.034 585.84
1.035 587.86
1.036 587.71
1.037 581.77
1.038 579.08
1.039 583.19
1.04 579.29
1.041 579.46
1.042 579.76
1.043 574.02
1.044 576.76
1.045 573.57
1.046 558.67
1.047 567.23
1.048 572.33
1.049 569.14
1.05 565.5
1.051 565.99
1.052 562.51
1.053 560.77
1.054 558.4
1.055 560.12
1.056 558.35
1.057 556.97
1.058 551.22
1.059 534.41
1.06 549.18
1.061 536.54
1.062 546.43
1.063 537.53
1.064 545.78
1.065 543.33
1.066 532.97
1.067 535.72
1.068 534.97
1.069 506.31
1.07 522.24
1.071 532.54
1.072 531.48
1.073 521.36
1.074 536.85
1.075 511.81
1.076 530.97
1.077 522.05
1.078 521.1
1.079 522.42
1.08 515.97
1.081 501.77
1.082 509.11
1.083 516.63
1.084 499.71
1.085 512.43
1.086 478.63
1.087 489.66
1.088 512.24
1.089 500.18
1.09 479.93
1.091 508.05
1.092 501.89
1.093 440.98
1.094 465.96
1.095 449.64
1.096 434.61
1.097 499.5
1.098 434.34
1.099 438.48
1.1 419.58
1.101 429.12
1.102 404.73
1.103 402.5
1.104 403.49
1.105 436.77
1.106 343.23
1.107 416.39
1.108 358.3
1.109 355.74
1.11 412.59
1.111 285.63
1.112 356.04
1.113 231.19
1.114 258.06
1.115 215
1.116 173.22
1.117 68.498
1.118 186.97
1.119 97.277
1.12 121.9
1.121 159.57
1.122 70.127
1.123 109.96
1.124 93.217
1.125 123.66
1.126 44.21
1.127 134.64
1.128 84.936
1.129 90.609
1.13 60.361
1.131 252.46
1.132 199.92
1.133 130.91
1.134 35.642
1.135 13.199
1.136 109.81
1.137 245.2
1.138 173.15
1.139 254.03
1.14 217.8
1.141 164.48
1.142 191.08
1.143 264.82
1.144 96.224
1.145 123.99
1.146 133.77
1.147 50.211
1.148 229.69
1.149 185.09
1.15 103.02
1.151 172.1
1.152 209.35
1.153 201.22
1.154 120.4
1.155 264.24
1.156 236.94
1.157 265.16
1.158 262.6
1.159 283.64
1.16 241.11
1.161 292.23
1.162 294.2
1.163 393.39
1.164 337.36
1.165 326.1
1.166 314.48
1.167 343.62
1.168 351.47
1.169 354.24
1.17 383.83
1.171 375.03
1.172 380.36
1.173 381.56
1.174 281.78
1.175 377.97
1.176 398.15
1.177 394.36
1.178 300.67
1.179 403.55
1.18 367.67
1.181 379.74
1.182 269.9
1.183 366.07
1.184 350.46
1.185 340.14
1.186 398.23
1.187 380.46
1.188 279.93
1.189 347.11
1.19 386.07
1.191 373.02
1.192 395.36
1.193 379.57
1.194 391.76
1.195 373.53
1.196 360.53
1.197 398.78
1.198 362.77
1.199 305.21
1.2 374.83
1.201 365.58
1.202 365.7
1.203 363.14
1.204 303.4
1.205 365.6
1.206 402.29
1.207 359.8
1.208 362.83
1.209 346.82
1.21 379.56
1.211 353.66
1.212 355.89
1.213 393.26
1.214 363.67
1.215 358.5
1.216 390.82
1.217 381.59
1.218 385.05
1.219 374.49
1.22 384.11
1.221 390.25
1.222 378.67
1.223 372.6
1.224 376.05
1.225 388.06
1.226 393.01
1.227 363.63
1.228 391.8
1.229 392.4
1.23 386.45
1.231 396.56
1.232 391.83
1.233 381.53
1.234 395.15
1.235 390.91
1.236 394.35
1.237 389.64
1.238 393.53
1.239 389.16
1.24 387.58
1.241 388.65
1.242 389.13
1.243 385.05
1.244 383.2
1.245 384.32
1.246 386.82
1.247 385.2
1.248 386.22
1.249 387.17
1.25 385.02
1.251 381.26
1.252 379.9
1.253 377.18
1.254 373.74
1.255 379.68
1.256 370.88
1.257 366.75
1.258 374.85
1.259 359.97
1.26 363.2
1.261 346.7
1.262 333.42
1.263 337.22
1.264 313.08
1.265 333.45
1.266 324.69
1.267 327.17
1.268 312.28
1.269 207.94
1.27 326.52
1.271 343.95
1.272 344.39
1.273 342.24
1.274 342.13
1.275 347.32
1.276 351.18
1.277 353.76
1.278 360.15
1.279 357.56
1.28 355.43
1.281 348.1
1.282 314.14
1.283 343.02
1.284 354.35
1.285 357.05
1.286 359.7
1.287 355.5
1.288 353.61
1.289 344.77
1.29 347.7
1.291 351.91
1.292 333.69
1.293 347.44
1.294 340.39
1.295 341.16
1.296 328.08
1.297 312.71
1.298 329.93
1.299 343.94
1.3 297.39
1.301 304.93
1.302 329.56
1.303 291.14
1.304 252.75
1.305 322.38
1.306 322.82
1.307 256.85
1.308 291.07
1.309 322.03
1.31 252.47
1.311 279.53
1.312 279.15
1.313 262.43
1.314 241.29
1.315 239.06
1.316 270.95
1.317 260.81
1.318 278.26
1.319 224.22
1.32 215.92
1.321 249.06
1.322 251.86
1.323 194.02
1.324 218.62
1.325 268.12
1.326 233.35
1.327 221.39
1.328 194.93
1.329 147.61
1.33 190.37
1.331 120.27
1.332 121.03
1.333 168.41
1.334 140.35
1.335 191.52
1.336 151.99
1.337 136.26
1.338 147.36
1.339 146.28
1.34 139.18
1.341 140.84
1.342 147.03
1.343 104.99
1.344 62.474
1.345 89.99
1.346 48.014
1.347 49.583
1.348 3.9129
1.349 13.317
1.35 13.201
1.351 3.8127
1.352 1.2483
1.353 0.079072
1.354 0.2386
1.355 0.0029626
1.356 0.039505
1.357 0.058972
1.358 0.0034447
1.359 0.00060283
1.36 0.0017563
1.361 3.9477E-06
1.362 1.482E-08
1.363 0.0025867
1.364 0.0011133
1.365 7.4321E-09
1.366 0.010469
1.367 0.0040713
1.368 1.2151E-10
1.369 0.00042235
1.37 0.0002386
1.371 0.000016116
1.372 0.002245
1.373 0.036234
1.374 0.14615
1.375 0.26361
1.376 0.20983
1.377 0.099949
1.378 0.90289
1.379 0.042458
1.38 0.066376
1.381 0.0019287
1.382 0.0020868
1.383 0.000035767
1.384 0.00050107
1.385 0.0016969
1.386 0.0020466
1.387 0.16143
1.388 0.0032656
1.389 0.47107
1.39 0.39979
1.391 0.27855
1.392 0.019258
1.393 0.093786
1.394 0.061117
1.395 0.00054308
1.396 5.1116E-06
1.397 0.039653
1.398 1.0264
1.399 0.65603
1.4 2.6211E-06
1.401 8.4982E-06
1.402 1.4813
1.403 1.9208
1.404 0.59633
1.405 0.00029409
1.406 1.6499
1.407 0.14084
1.408 1.3305
1.409 0.49945
1.41 0.37627
1.411 1.7049
1.412 2.1282
1.413 18.824
1.414 0.29325
1.415 0.14804
1.416 28.657
1.417 9.4751
1.418 10.924
1.419 1.7275
1.42 6.663
1.421 7.3805
1.422 37.288
1.423 7.4238
1.424 13.666
1.425 20.807
1.426 22.367
1.427 39.862
1.428 3.6685
1.429 30.585
1.43 49.541
1.431 40.335
1.432 2.0264
1.433 28.811
1.434 16.854
1.435 17.217
1.436 30.822
1.437 24.011
1.438 10.657
1.439 40.995
1.44 31.805
1.441 25.537
1.442 29.159
1.443 36.174
1.444 49.588
1.445 39.923
1.446 18.533
1.447 29.054
1.448 92.742
1.449 81.869
1.45 21.982
1.451 9.0381
1.452 49.985
1.453 65.693
1.454 110.19
1.455 52.999
1.456 70.893
1.457 93.684
1.458 109.21
1.459 130.49
1.46 68.382
1.461 72.254
1.462 104.48
1.463 34.594
1.464 121.4
1.465 74.681
1.466 52.142
1.467 28.836
1.468 61.507
1.469 75.795
1.47 39.706
1.471 14.265
1.472 37.367
1.473 56.062
1.474 77.706
1.475 147.26
1.476 54.895
1.477 55.646
1.478 50.643
1.479 95.686
1.48 48.359
1.481 91.888
1.482 46.625
1.483 118.33
1.484 109.47
1.485 99.56
1.486 98.229
1.487 48.273
1.488 74.94
1.489 150.84
1.49 138.94
1.491 157.15
1.492 130.64
1.493 144.23
1.494 161.73
1.495 144.94
1.496 133.79
1.497 181.28
1.498 150.51
1.499 172.57
1.5 198.67
1.501 210.49
1.502 185.22
1.503 146.72
1.504 127.22
1.505 146.03
1.506 204.45
1.507 202.44
1.508 192.87
1.509 148.42
1.51 214.71
1.511 210.14
1.512 206.93
1.513 192.45
1.514 179.26
1.515 210.99
1.516 203.95
1.517 198
1.518 200.26
1.519 194.14
1.52 210.11
1.521 218.5
1.522 209.59
1.523 222.52
1.524 218.86
1.525 205.76
1.526 212.64
1.527 208.49
1.528 222.08
1.529 216.68
1.53 203.01
1.531 214.59
1.532 221.49
1.533 220.51
1.534 214
1.535 212.39
1.536 218.6
1.537 217.62
1.538 216.57
1.539 217.33
1.54 210.94
1.541 214.28
1.542 214.5
1.543 216.77
1.544 216.82
1.545 220.79
1.546 219.03
1.547 217.68
1.548 212.65
1.549 217.99
1.55 215.2
1.551 215.85
1.552 216.95
1.553 216.64
1.554 211.49
1.555 213.86
1.556 210.38
1.557 216.49
1.558 214.88
1.559 214.65
1.56 212.82
1.561 216.4
1.562 214.54
1.563 213.93
1.564 210.8
1.565 214.62
1.566 210.85
1.567 211.45
1.568 206.84
1.569 204.77
1.57 194.59
1.571 189.31
1.572 191.53
1.573 188.64
1.574 194.66
1.575 193.35
1.576 199.13
1.577 174.4
1.578 189.93
1.579 191.27
1.58 197.74
1.581 201.1
1.582 195.72
1.583 200.34
1.584 201.62
1.585 209.56
1.586 207.18
1.587 205.11
1.588 203.6
1.589 188.49
1.59 196.25
1.591 196.47
1.592 204.92
1.593 209.95
1.594 208.35
1.595 210.06
1.596 198.99
1.597 201.03
1.598 207.06
1.599 197.22
1.6 194.12
1.601 182.07
1.602 182.86
1.603 182.79
1.604 186.48
1.605 193.39
1.606 197.18
1.607 190.36
1.608 187.93
1.609 185.84
1.61 177.98
1.611 185.54
1.612 188.82
1.613 194.14
1.614 195.16
1.615 197.38
1.616 188.8
1.617 192.24
1.618 199.56
1.619 197.55
1.62 192.27
1.621 192.13
1.622 194.8
1.623 198.86
1.624 199.07
1.625 195.09
1.626 196.66
1.627 197.55
1.628 197.97
1.629 198.07
1.63 194.1
1.631 195.38
1.632 195.52
1.633 190.98
1.634 191.11
1.635 191.82
1.636 193.24
1.637 186.36
1.638 180.69
1.639 180.84
1.64 176.64
1.641 180.32
1.642 181.33
1.643 176.86
1.644 183.59
1.645 179.22
1.646 178.64
1.647 187.01
1.648 177.89
1.649 179.63
1.65 185.05
1.651 171.32
1.652 183.76
1.653 182.96
1.654 177.26
1.655 182.56
1.656 181.48
1.657 182.47
1.658 184.62
1.659 181.59
1.66 183.33
1.661 183.74
1.662 179.81
1.663 182.47
1.664 181.33
1.665 173.77
1.666 146.76
1.667 172.83
1.668 176.02
1.669 176.47
1.67 181.79
1.671 179.4
1.672 173.37
1.673 177.3
1.674 176.83
1.675 175.05
1.676 173.25
1.677 173.92
1.678 171.33
1.679 174.47
1.68 168.35
1.681 159.22
1.682 166.71
1.683 171.1
1.684 162.02
1.685 174.45
1.686 172
1.687 167.55
1.688 171.83
1.689 169.4
1.69 167.79
1.691 157.81
1.692 169.25
1.693 172.7
1.694 167.3
1.695 171.28
1.696 170.88
1.697 147.89
1.698 169.33
1.699 167.77
1.7 163.04
1.702 166.39
1.705 161.25
1.71 153.04
1.715 154.3
1.72 151.96
1.725 144.57
1.73 141.16
1.735 130.85
1.74 136.06
1.745 125.11
1.75 133.72
1.755 123.45
1.76 129
1.765 107.12
1.77 114.23
1.775 92.582
1.78 81.023
1.785 62.084
1.79 71.703
1.795 37.878
1.8 25.702
1.805 11.967
1.81 7.8302
1.815 2.6522
1.82 0.79827
1.825 1.0305
1.83 0.0042102
1.835 0.0051945
1.84 0.000050757
1.845 0.0050665
1.85 0.0024229
1.855 0.00022841
1.86 0.0089322
1.865 0.013555
1.87 2.1201E-07
1.875 3.5757E-07
1.88 0.061174
1.885 0.034505
1.89 0.17487
1.895 0.10086
1.9 0.00066798
1.905 0.00043734
1.91 0.017748
1.915 0.015319
1.92 0.34512
1.925 0.71637
1.93 0.4224
1.935 2.7454
1.94 2.5059
1.945 8.2876
1.95 12.752
1.955 7.6444
1.96 16.67
1.965 21.738
1.97 37.176
1.975 51.649
1.98 57.486
1.985 63.493
1.99 65.729
1.995 62.616
2 29.574
2.005 11.687
2.01 31.112
2.015 20.966
2.02 35.559
2.025 58.515
2.03 67.114
2.035 76.251
2.04 71.055
2.045 72.109
2.05 53.815
2.055 43.521
2.06 54.856
2.065 49.049
2.07 52.056
2.075 61.368
2.08 68.772
2.085 67.37
2.09 70.479
2.095 70.942
2.1 68.04
2.105 73.471
2.11 70.604
2.115 72.089
2.12 68.773
2.125 69.486
2.13 70.274
2.135 70.376
2.14 70.837
2.145 69.795
2.15 65.979
2.155 66.094
2.16 65.535
2.165 59.395
2.17 63.797
2.175 62.571
2.18 63.605
2.185 57.953
2.19 61.446
2.195 61.373
2.2 55.317
2.205 57.501
2.21 61.621
2.215 59.264
2.22 60.4
2.225 58.646
2.23 58.908
2.235 57.78
2.24 56.878
2.245 55.125
2.25 56.015
2.255 52.731
2.26 52.166
2.265 53.102
2.27 50.545
2.275 49.872
2.28 51.618
2.285 49.108
2.29 49.202
2.295 47.664
2.3 45.75
2.305 45.974
2.31 49.569
2.315 45.076
2.32 40.298
2.325 43.494
2.33 43.923
2.335 44.762
2.34 35.363
2.345 39.629
2.35 32.008
2.355 36.558
2.36 38.663
2.365 38.009
2.37 23.7
2.375 33.928
2.38 32.687
2.385 23.666
2.39 28.469
2.395 31.119
2.4 33.824
2.405 25.731
2.41 25.882
2.415 20.889
2.42 20.336
2.425 25.303
2.43 34.497
2.435 11.386
2.44 33.099
2.445 15.925
2.45 10.423
2.455 19.031
2.46 25.549
2.465 18.499
2.47 12.817
2.475 12.611
2.48 6.1631
2.485 4.3018
2.49 2.6928
2.495 2.2066
2.5 5.4169
2.505 1.1648
2.51 1.6992
2.515 0.39773
2.52 0.28401
2.525 0.031723
2.53 0.00048729
2.535 0.0001341
2.54 0.00028892
2.545 4.1171E-08
2.55 2.1611E-10
2.555 7.9894E-07
2.56 2.3746E-08
2.565 1.2215E-11
2.57 1.1679E-15
2.575 8.2538E-25
2.58 2.9239E-19
2.585 1.3153E-31
2.59 4.1904E-28
2.595 1.7469E-30
2.6 3.4339E-25
2.605 4.4385E-32
2.61 4.5447E-31
2.615 8.5592E-35
2.62 4.3201E-26
2.625 2.9576E-25
2.63 0
2.635 2.9839E-13
2.64 8.9836E-14
2.645 6.8812E-16
2.65 1.0932E-16
2.655 1.0046E-24
2.66 1.9943E-22
2.665 8.5117E-35
2.67 0
2.675 0
2.68 0
2.685 0
2.69 7.8428E-27
2.695 5.4723E-30
2.7 0
2.705 0
2.71 8.6604E-33
2.715 2.9704E-23
2.72 0
2.725 5.632E-19
2.73 4.6946E-16
2.735 4.247E-18
2.74 1.8056E-24
2.745 1.0189E-20
2.75 1.2911E-25
2.755 0
2.76 0
2.765 2.0802E-24
2.77 6.512E-21
2.775 3.1093E-35
2.78 3.7388E-31
2.785 3.0241E-24
2.79 9.4717E-14
2.795 2.8188E-13
2.8 1.2822E-09
2.805 5.2558E-11
2.81 3.1309E-07
2.815 2.2325E-07
2.82 1.5993E-08
2.825 0.00013705
2.83 0.0030369
2.835 1.6565E-07
2.84 0.0001527
2.845 0.031597
2.85 0.00090069
2.855 0.00034943
2.86 0.019748
2.865 0.13057
2.87 0.0049171
2.875 0.3051
2.88 0.19259
2.885 0.35311
2.89 0.14507
2.895 2.0754
2.9 0.63214
2.905 0.086431
2.91 2.1203
2.915 0.98006
2.92 2.2549
2.925 0.844
2.93 4.5848
2.935 5.0555
2.94 1.2675
2.945 1.1286
2.95 4.0716
2.955 1.8195
2.96 3.5804
2.965 5.793
2.97 0.27441
2.975 0.66532
2.98 1.0421
2.985 5.4225
2.99 8.0053
2.995 3.3295
3 6.1108
3.005 2.2507
3.01 5.3321
3.015 4.3253
3.02 0.49337
3.025 5.8419
3.03 4.7297
3.035 1.9452
3.04 1.5758
3.045 3.2766
3.05 0.80345
3.055 0.22532
3.06 4.9043
3.065 2.2658
3.07 1.3613
3.075 4.6863
3.08 2.8186
3.085 1.3749
3.09 1.8521
3.095 0.50968
3.1 3.4238
3.105 0.71686
3.11 0.6578
3.115 1.7638
3.12 7.6375
3.125 2.3556
3.13 4.4803
3.135 8.9003
3.14 2.5846
3.145 2.5281
3.15 5.1887
3.155 4.3817
3.16 7.1761
3.165 10.895
3.17 9.7266
3.175 7.1728
3.18 8.2534
3.185 6.2799
3.19 3.2934
3.195 2.0919
3.2 0.34058
3.205 0.24059
3.21 0.1059
3.215 0.3864
3.22 1.2495
3.225 0.15434
3.23 0.26463
3.235 5.6633
3.24 2.9087
3.245 0.56992
3.25 2.0236
3.255 7.7142
3.26 0.95071
3.265 1.8988
3.27 0.94571
3.275 4.5992
3.28 2.2228
3.285 8.6345
3.29 6.7943
3.295 0.94916
3.3 1.3805
3.305 3.0578
3.31 3.0438
3.315 0.012515
3.32 0.046535
3.325 2.7296
3.33 3.6164
3.335 7.0362
3.34 2.6847
3.345 2.7477
3.35 6.2304
3.355 2.8184
3.36 4.0683
3.365 5.5836
3.37 3.059
3.375 6.5681
3.38 3.9708
3.385 5.8189
3.39 7.6575
3.395 7.4186
3.4 9.7217
3.405 3.4659
3.41 5.5032
3.415 5.6569
3.42 10.235
3.425 7.7782
3.43 6.7543
3.435 8.9793
3.44 6.2444
3.445 8.7953
3.45 8.6671
3.455 6.4565
3.46 9.7363
3.465 7.6277
3.47 9.5279
3.475 8.5007
3.48 8.7188
3.485 9.3938
3.49 8.0923
3.495 9.5257
3.5 9.2553
3.505 9.1718
3.51 9.2901
3.515 8.9216
3.52 9.4045
3.525 8.864
3.53 8.6286
3.535 7.331
3.54 7.0007
3.545 7.3964
3.55 8.1665
3.555 7.0188
3.56 8.3631
3.565 8.406
3.57 6.4581
3.575 6.6951
3.58 7.8893
3.585 7.0988
3.59 7.3193
3.595 7.4872
3.6 7.9449
3.605 8.0199
3.61 7.3378
3.615 7.3326
3.62 8.9897
3.625 7.9248
3.63 7.7048
3.635 7.9708
3.64 8.8844
3.645 8.2026
3.65 7.8336
3.655 8.4946
3.66 8.445
3.665 7.933
3.67 6.1125
3.675 3.7359
3.68 6.4452
3.685 7.3005
3.69 7.4968
3.695 7.8367
3.7 8.4129
3.705 8.3284
3.71 7.2408
3.715 7.1331
3.72 8.0221
3.725 8.2702
3.73 7.1668
3.735 6.6353
3.74 6.8401
3.745 7.9848
3.75 7.18
3.755 6.9488
3.76 6.8492
3.765 6.6068
3.77 7.0498
3.775 6.9935
3.78 7.3967
3.785 6.8074
3.79 5.9913
3.795 6.8503
3.8 7.6144
3.805 7.1856
3.81 6.3668
3.815 5.9896
3.82 7.4543
3.825 7.3385
3.83 7.4051
3.835 5.9374
3.84 6.928
3.845 6.7765
3.85 6.8128
3.855 6.5663
3.86 6.1687
3.865 6.2495
3.87 5.6796
3.875 5.2175
3.88 5.0414
3.885 5.2247
3.89 5.3095
3.895 5.7676
3.9 6.114
3.905 6.115
3.91 5.5042
3.915 5.3896
3.92 5.3584
3.925 5.2853
3.93 5.438
3.935 5.6721
3.94 5.7094
3.945 5.8159
3.95 5.8823
3.955 5.9533
3.96 5.9748
3.965 6.019
3.97 5.9223
3.975 5.7902
3.98 5.6956
3.985 5.7304
3.99 5.6836
3.995 5.5581
4 5.4763
