Description: y_bar Component : CIE 1964 10 Degree Observer at 5 nm intervals from 360 to 830 nm, from ISO/CIE 10527 Table 2, downloaded from: http://cvision.ucsd.edu
Type: Detector
Wavelength Units: Nanometers
360     0.000000013398
365     0.00000010065
370     0.0000006511
375     0.000003625
380     0.000017364
385     0.00007156
390     0.0002534
395     0.0007685
400     0.0020044
405     0.0045090
410     0.0087560
415     0.0144560
420     0.0213910
425     0.0294970
430     0.0386760
435     0.0496020
440     0.0620770
445     0.0747040
450     0.0894560
455     0.1062560
460     0.1282010
465     0.1527610
470     0.1851900
475     0.2199400
480     0.2535890
485     0.2976650
490     0.3391330
495     0.3953790
500     0.4607770
505     0.5313600
510     0.6067410
515     0.6856600
520     0.7617570
525     0.8233300
530     0.8752110
535     0.9238100
540     0.9619880
545     0.9822000
550     0.9917610
555     0.9991100
560     0.9973400
565     0.9823800
570     0.9555520
575     0.9151750
580     0.8689340
585     0.8256230
590     0.7774050
595     0.7203530
600     0.6583410
605     0.5938780
610     0.5279630
615     0.4618340
620     0.3980570
625     0.3395540
630     0.2834930
635     0.2282540
640     0.1798280
645     0.1402110
650     0.1076330
655     0.0811870
660     0.0602810
665     0.0440960
670     0.0318004
675     0.0226017
680     0.0159051
685     0.0111303
690     0.0077488
695     0.0053751
700     0.00371774
705     0.00256456
710     0.00176847
715     0.00122239
720     0.00084619
725     0.00058644
730     0.00040741
735     0.000284041
740     0.00019873
745     0.00013955
750     0.000098428
755     0.000069819
760     0.000049737
765     0.0000355405
770     0.000025486
775     0.0000183384
780     0.000013249
785     0.0000096196
790     0.0000070128
795     0.0000051298
800     0.00000376473
805     0.00000277081
810     0.00000204613
815     0.00000151677
820     0.00000112809
825     0.00000084216
830     0.0000006297
