Description: x_bar Component : CIE 1964 10 Degree Observer at 5 nm intervals from 360 to 830 nm, from ISO/CIE 10527 Table 2, downloaded from: http://cvision.ucsd.edu
Type: Detector
Wavelength Units: Nanometers
360     0.0000001222
365     0.00000091927
370     0.0000059586
375     0.000033266
380     0.000159952
385     0.00066244
390     0.0023616
395     0.0072423
400     0.0191097
405     0.0434000
410     0.0847360
415     0.1406380
420     0.2044920
425     0.2647370
430     0.3146790
435     0.3577190
440     0.3837340
445     0.3867260
450     0.3707020
455     0.3429570
460     0.3022730
465     0.2540850
470     0.1956180
475     0.1323490
480     0.0805070
485     0.0410720
490     0.0161720
495     0.0051320
500     0.0038160
505     0.0154440
510     0.0374650
515     0.0713580
520     0.1177490
525     0.1729530
530     0.2364910
535     0.3042130
540     0.3767720
545     0.4515840
550     0.5298260
555     0.6160530
560     0.7052240
565     0.7938320
570     0.8786550
575     0.9511620
580     1.0141600
585     1.0743000
590     1.1185200
595     1.1343000
600     1.1239900
605     1.0891000
610     1.0304800
615     0.9507400
620     0.8562970
625     0.7549300
630     0.6474670
635     0.5351100
640     0.4315670
645     0.3436900
650     0.2683290
655     0.2043000
660     0.1525680
665     0.1122100
670     0.0812606
675     0.0579300
680     0.0408508
685     0.0286230
690     0.0199413
695     0.0138420
700     0.00957688
705     0.0066052
710     0.00455263
715     0.0031447
720     0.00217496
725     0.0015057
730     0.00104476
735     0.00072745
740     0.000508258
745     0.00035638
750     0.000250969
755     0.00017773
760     0.00012639
765     0.000090151
770     0.0000645258
775     0.000046339
780     0.0000334117
785     0.000024209
790     0.0000176115
795     0.000012855
800     0.00000941363
805     0.000006913
810     0.00000509347
815     0.0000037671
820     0.00000279531
825     0.000002082
830     0.00000155314
