Description: Parry Moon AM 2 Solar Source - from Journal of the Franklin Institute, November 1940, pp.583-617, Table III.  (Wm-2um-1)
Type: Source
Wavelength Units: Microns

.295  2.09E-4
.296  8.35
.297  2.87E-3
.298  9.87
.299  0.0346
.300  0.0810
.301  0.177
.302  0.342
.303  0.647
.304  1.16
.305  1.91
.306  2.89
.307  4.15
.308  6.11
.309  8.38
.310  11.0
.311  13.9
.312  17.2
.313  21.0
.314  25.4
.315  30.0
.316  34.8
.317  39.8
.318  44.9
.319  49.5
.32  54.0
.33  101.
.34  151.
.35  188.
.36  233.
.37  279.
.38  336.
.39  397.
.40  470.
.41  672.
.42  733.
.43  787.
.44  911.
.45  1006.
.46  1080.
.47  1138.
.48  1183.
.49  1210.
.50  1215.
.51  1206.
.52  1199.
.53  1188.
.54  1198.
.55  1190.
.56  1182.
.57  1178.
.58  1168.
.59  1161.
.60  1167.
.61  1168.
.62  1165.
.63  1176.
.64  1175.
.65  1173.
.66  1166.
.67  1160.
.68  1149.
.69  978.
.70  1108.
.71  1070.
.72  832.
.73  965.
.74  1041.
.75  867.
.76  566.
.77  968.
.78  907.
.79  923.
.80  857.
.81  698.
.82  801.
.83  863.
.84  858.
.85  839.
.86  813.
.87  798.
.88  614.
.89  517.
.90  480.
.91  375.
.92  258.
.93  169.
.94  278.
.95  487.
.96  584.
.97  633.
.98  645.
.99  643.
1.00  630.
1.01  620.
1.02  610.
1.03  601.
1.04  592.
1.05  551.
1.06  526.
1.07  519.
1.08  512.
1.09  514.
1.10  252.
1.11  126.
1.12  69.9
1.13  98.3
1.14  164.
1.15  216.
1.16  271.
1.17  328.
1.18  346.
1.19  344.
1.20  373.
1.21  402.
1.22  431.
1.23  420.
1.24  387.
1.25  328.
1.26  311.
1.27  381.
1.28  382.
1.29  346.
1.30  264.
1.31  208.
1.32  168.
1.33  115.
1.34  58.1
1.35  18.1
1.36  0.660
1.37  0.
1.38  0.
1.39  0.
1.40  0.
1.41  1.91
1.42  3.72
1.43  7.53
1.44  13.7
1.45  23.8
1.46  30.5
1.47  45.1
1.48  83.7
1.49  128.
1.50  157.
1.51  187.
1.52  209.
1.53  217.
1.54  226.
1.55  221.
1.56  217.
1.57  213.
1.58  209.
1.59  205.
1.60  202.
1.61  198.
1.62  194.
1.63  189.
1.64  184.
1.65  173.
1.66  163.
1.67  159.
1.68  145.
1.69  139.
1.70  132.
1.71  124.
1.72  115.
1.73  105.
1.74  97.1
1.75  80.2
1.76  58.9
1.77  38.8
1.78  18.4
1.79  5.70
1.80  0.920
1.81  0.
1.85  0.
1.90  0.
1.91  0.705
1.92  2.34
1.93  3.68
1.94  5.30
1.95  17.7
1.96  31.7
1.97  37.7
1.98  22.6
1.99  1.58
2.00  2.66
2.01  19.5
2.02  47.6
2.03  55.4
2.04  54.7
2.05  38.3
2.06  56.2
2.07  77.0
2.08  88.0
2.09  86.8
2.10  85.6
2.11  84.4
2.12  83.2
2.13  20.7
2.14  0.
